File: charts/20230801/TGA/INSATURADAS/STD 5A.txt
23/05/2023 21:00:42
User name: Gabs
Comments: Zeólitas - Mariana
Number	time(s)	mass(g)	Relative_mass(%)	Sample_T(C)	PV(C)	SV(C)
1.0	0.0	0.1647	100.0	23.5	60.0	60.0
17.0	30.001	0.1633	99.14997	41.25	102.0	62.0
33.0	62.009	0.1632	99.08925	53.25	122.0	63.0
49.0	94.009	0.1632	99.08925	60.25	127.0	63.0
67.0	130.009	0.1629	98.9071	65.25	127.0	63.0
93.0	182.009	0.1626	98.72495	69.25	124.0	63.0
526.0	1048.009	0.1598	97.02489	72.0	120.0	120.0
556.0	1108.009	0.1596	96.90346	76.0	127.0	125.0
587.0	1170.009	0.1594	96.78203	80.0	132.0	130.0
618.0	1232.009	0.1592	96.6606	84.25	137.0	136.0
649.0	1294.009	0.1589	96.47845	88.25	141.0	141.0
681.0	1358.009	0.1586	96.2963	92.25	146.0	146.0
708.0	1412.009	0.1583	96.11415	96.25	151.0	151.0
736.0	1468.009	0.158	95.932	100.25	156.0	155.0
762.0	1520.009	0.1577	95.74985	104.25	161.0	159.0
792.0	1580.009	0.1573	95.50698	108.5	166.0	164.0
824.0	1644.009	0.1569	95.26412	112.75	171.0	170.0
851.0	1698.009	0.1566	95.08197	116.75	174.0	174.0
881.0	1758.009	0.1561	94.77838	121.0	179.0	179.0
911.0	1818.009	0.1557	94.53552	125.0	184.0	184.0
932.0	1860.009	0.1554	94.35337	129.0	189.0	188.0
961.0	1918.009	0.1549	94.04979	133.25	194.0	193.0
991.0	1978.009	0.1544	93.74621	137.25	199.0	198.0
1021.0	2038.009	0.1539	93.44262	141.25	202.0	202.0
1050.0	2096.009	0.1534	93.13904	145.25	207.0	207.0
1076.0	2148.009	0.1529	92.83546	149.5	213.0	212.0
1104.0	2204.009	0.1524	92.53188	153.5	216.0	216.0
1135.0	2266.009	0.1518	92.16758	157.75	221.0	221.0
1159.0	2314.009	0.1513	91.864	162.0	226.0	225.0
1190.0	2376.009	0.1506	91.43898	166.0	230.0	231.0
1212.0	2420.009	0.1502	91.19611	170.0	234.0	234.0
1240.0	2476.009	0.1495	90.7711	174.0	239.0	239.0
1266.0	2528.009	0.1489	90.4068	178.25	243.0	243.0
1294.0	2584.009	0.1482	89.98179	182.25	248.0	248.0
1319.0	2634.009	0.1475	89.55677	186.5	252.0	252.0
1348.0	2692.009	0.1467	89.07104	190.5	257.0	257.0
1371.0	2738.009	0.146	88.64602	194.5	261.0	261.0
1399.0	2794.009	0.1452	88.16029	198.5	265.0	265.0
1423.0	2842.009	0.1445	87.73528	202.75	269.0	269.0
1448.0	2892.009	0.1437	87.24954	206.75	274.0	273.0
1479.0	2954.009	0.1427	86.64238	211.75	278.0	279.0
1505.0	3006.009	0.1418	86.09593	216.0	283.0	283.0
1532.0	3060.009	0.1409	85.54948	220.25	287.0	287.0
1556.0	3108.009	0.14	85.00304	224.5	291.0	291.0
1583.0	3162.009	0.1391	84.45659	228.75	296.0	296.0
1606.0	3208.009	0.1383	83.97086	232.75	300.0	300.0
1634.0	3264.009	0.1373	83.36369	236.75	304.0	304.0
1655.0	3306.009	0.1366	82.93868	240.75	308.0	308.0
1679.0	3354.009	0.1358	82.45294	244.75	312.0	312.0
1709.0	3414.009	0.1349	81.9065	249.0	316.0	317.0
1730.0	3456.009	0.1342	81.48148	253.0	320.0	320.0
1753.0	3502.009	0.1335	81.05647	257.25	324.0	324.0
1775.0	3546.009	0.1329	80.69217	261.25	329.0	328.0
1804.0	3604.009	0.1322	80.26715	265.75	333.0	332.0
1826.0	3648.009	0.1317	79.96357	269.75	336.0	336.0
1850.0	3696.009	0.1313	79.7207	273.75	339.0	340.0
1879.0	3754.009	0.1307	79.35641	278.0	344.0	345.0
1899.0	3794.009	0.1304	79.17426	282.25	348.0	348.0
1926.0	3848.009	0.13	78.93139	287.0	353.0	353.0
1947.0	3890.009	0.1297	78.74924	291.0	356.0	356.0
1976.0	3948.009	0.1293	78.50638	295.25	361.0	361.0
1999.0	3994.009	0.1291	78.38494	299.25	364.0	365.0
2021.0	4038.009	0.1289	78.26351	303.5	368.0	369.0
2044.0	4084.009	0.1287	78.14208	307.75	372.0	372.0
2066.0	4128.009	0.1285	78.02064	311.75	377.0	376.0
2095.0	4186.009	0.1283	77.89921	316.5	381.0	381.0
2117.0	4230.009	0.1281	77.77778	320.5	384.0	384.0
2139.0	4274.009	0.1279	77.65634	324.5	388.0	388.0
2161.0	4318.009	0.1278	77.59563	328.5	392.0	392.0
2183.0	4362.009	0.1276	77.4742	332.75	395.0	395.0
2211.0	4418.009	0.1275	77.41348	336.75	400.0	400.0
2231.0	4458.009	0.1273	77.29205	340.75	404.0	403.0
2255.0	4506.009	0.1272	77.23133	345.0	407.0	407.0
2278.0	4552.009	0.127	77.1099	349.25	411.0	411.0
2301.0	4598.009	0.1268	76.98846	353.5	415.0	415.0
2323.0	4642.009	0.1267	76.92775	357.75	419.0	419.0
2344.0	4684.009	0.1266	76.86703	361.75	422.0	422.0
2375.0	4746.009	0.1264	76.7456	366.25	427.0	427.0
2396.0	4788.009	0.1263	76.68488	370.25	431.0	431.0
2418.0	4832.009	0.1262	76.62417	374.5	434.0	434.0
2440.0	4876.009	0.126	76.50273	378.5	438.0	438.0
2463.0	4922.009	0.1259	76.44202	382.75	442.0	442.0
2487.0	4970.009	0.1257	76.32058	387.25	446.0	446.0
2509.0	5014.009	0.1256	76.25987	391.25	449.0	450.0
2531.0	5058.009	0.1255	76.19915	395.25	453.0	453.0
2554.0	5104.009	0.1253	76.07772	399.5	457.0	457.0
2586.0	5168.009	0.1252	76.017	404.25	462.0	462.0
2610.0	5216.009	0.125	75.89557	408.5	466.0	466.0
2629.0	5254.009	0.1249	75.83485	412.5	469.0	469.0
2654.0	5304.009	0.1247	75.71342	417.0	474.0	474.0
2676.0	5348.009	0.1246	75.6527	421.0	477.0	477.0
2698.0	5392.009	0.1245	75.59199	425.25	481.0	481.0
2720.0	5436.009	0.1243	75.47055	429.25	484.0	485.0
2744.0	5484.009	0.1241	75.34912	433.5	488.0	489.0
2764.0	5524.009	0.124	75.2884	437.5	492.0	492.0
2788.0	5572.009	0.1239	75.22769	441.75	496.0	496.0
2810.0	5616.009	0.1237	75.10625	445.75	499.0	499.0
2832.0	5660.009	0.1236	75.04554	449.75	503.0	503.0
2854.0	5704.009	0.1234	74.9241	453.75	507.0	507.0
2879.0	5754.009	0.1232	74.80267	458.5	511.0	511.0
2902.0	5800.009	0.1231	74.74196	462.5	515.0	515.0
2926.0	5848.009	0.1229	74.62052	466.5	518.0	519.0
2947.0	5890.009	0.1228	74.55981	470.75	522.0	522.0
2971.0	5938.009	0.1227	74.49909	475.25	526.0	526.0
2995.0	5986.009	0.1225	74.37766	479.5	530.0	530.0
3018.0	6032.009	0.1224	74.31694	483.5	534.0	534.0
3041.0	6078.009	0.1222	74.19551	487.5	538.0	538.0
3065.0	6126.009	0.1221	74.13479	491.75	542.0	542.0
3088.0	6172.009	0.1219	74.01336	496.0	546.0	546.0
3114.0	6224.009	0.1218	73.95264	500.25	550.0	550.0
3137.0	6270.009	0.1217	73.89192	504.25	553.0	554.0
3163.0	6322.009	0.1215	73.77049	509.0	558.0	558.0
3186.0	6368.009	0.1214	73.70978	513.0	562.0	562.0
3214.0	6424.009	0.1213	73.64906	517.75	566.0	567.0
3238.0	6472.009	0.1212	73.58834	522.0	570.0	571.0
3262.0	6520.009	0.1211	73.52763	526.0	575.0	575.0
3288.0	6572.009	0.1209	73.40619	530.25	578.0	579.0
3313.0	6622.009	0.1209	73.40619	534.25	582.0	583.0
3333.0	6662.009	0.1208	73.34548	538.5	586.0	586.0
3358.0	6712.009	0.1207	73.28476	542.75	590.0	590.0
3381.0	6758.009	0.1206	73.22404	547.0	594.0	594.0
3405.0	6806.009	0.1205	73.16333	551.0	598.0	598.0
3425.0	6846.009	0.1204	73.10261	556.0	602.0	602.0
3451.0	6898.009	0.1203	73.04189	560.0	606.0	606.0
3474.0	6944.009	0.1203	73.04189	564.5	610.0	610.0
3503.0	7002.009	0.1202	72.98118	569.0	614.0	615.0
3529.0	7054.009	0.1201	72.92046	573.0	618.0	619.0
3551.0	7098.009	0.1201	72.92046	577.0	622.0	623.0
3574.0	7144.009	0.12	72.85974	581.0	626.0	626.0
3597.0	7190.009	0.1199	72.79903	585.0	630.0	630.0
3621.0	7238.009	0.1199	72.79903	589.0	634.0	634.0
3643.0	7282.009	0.1198	72.73831	593.0	638.0	638.0
3669.0	7334.009	0.1197	72.6776	597.0	641.0	642.0
3689.0	7374.009	0.1196	72.61688	602.25	645.0	645.0
3718.0	7432.009	0.1196	72.61688	606.5	650.0	650.0
3744.0	7484.009	0.1195	72.55616	610.5	654.0	655.0
3767.0	7530.009	0.1195	72.55616	614.5	658.0	658.0
3792.0	7580.009	0.1194	72.49545	618.5	662.0	663.0
3818.0	7632.009	0.1193	72.43473	622.75	666.0	667.0
3844.0	7684.009	0.1193	72.43473	627.25	671.0	671.0
3869.0	7734.009	0.1192	72.37401	632.25	675.0	675.0
3895.0	7786.009	0.1192	72.37401	636.5	679.0	680.0
3918.0	7832.009	0.1191	72.3133	640.5	683.0	683.0
3945.0	7886.009	0.119	72.25258	645.0	688.0	688.0
3972.0	7940.009	0.119	72.25258	649.0	692.0	692.0
3990.0	7976.009	0.1189	72.19186	653.75	695.0	695.0
4020.0	8036.009	0.1188	72.13115	657.75	700.0	700.0
4046.0	8088.009	0.1188	72.13115	661.75	705.0	705.0
4071.0	8138.009	0.1187	72.07043	665.75	709.0	709.0
4095.0	8186.009	0.1187	72.07043	669.75	712.0	713.0
4120.0	8236.009	0.1186	72.00971	675.0	716.0	717.0
4149.0	8294.009	0.1186	72.00971	679.25	722.0	722.0
4174.0	8344.009	0.1185	71.949	683.5	726.0	726.0
4200.0	8396.009	0.1184	71.88828	688.0	729.0	730.0
4223.0	8442.009	0.1184	71.88828	692.5	734.0	734.0
4251.0	8498.009	0.1183	71.82757	696.5	739.0	739.0
4278.0	8552.009	0.1182	71.76685	700.5	743.0	743.0
4296.0	8588.009	0.1182	71.76685	705.25	746.0	746.0
4325.0	8646.009	0.1181	71.70613	709.5	752.0	751.0
4358.0	8712.009	0.1181	71.70613	713.75	756.0	756.0
4380.0	8756.009	0.118	71.64542	718.75	760.0	760.0
4412.0	8820.009	0.1179	71.5847	723.0	765.0	765.0
4437.0	8870.009	0.1179	71.5847	727.25	769.0	770.0
4463.0	8922.009	0.1179	71.5847	732.25	774.0	774.0
4495.0	8986.009	0.1178	71.52398	737.25	779.0	779.0
4528.0	9052.009	0.1177	71.46327	741.5	784.0	785.0
4554.0	9104.009	0.1177	71.46327	746.75	788.0	789.0
4579.0	9154.009	0.1176	71.40255	751.0	794.0	793.0
4606.0	9208.009	0.1175	71.34183	755.5	797.0	798.0
4634.0	9264.009	0.1175	71.34183	760.0	802.0	802.0
4666.0	9328.009	0.1174	71.28112	764.25	807.0	808.0
4693.0	9382.009	0.1174	71.28112	769.0	812.0	812.0
4722.0	9440.009	0.1173	71.2204	773.25	817.0	817.0
4743.0	9482.009	0.1173	71.2204	778.0	822.0	820.0
4773.0	9542.009	0.1172	71.15968	782.0	825.0	825.0
4801.0	9598.009	0.1171	71.09897	787.5	829.0	830.0
4834.0	9664.009	0.1171	71.09897	791.5	835.0	835.0
4859.0	9714.009	0.117	71.03825	796.25	839.0	840.0
4890.0	9776.009	0.1169	70.97753	800.5	845.0	845.0
4919.0	9834.009	0.1168	70.91682	805.5	849.0	850.0
4952.0	9900.009	0.1168	70.91682	809.75	854.0	855.0
4974.0	9944.009	0.1168	70.91682	814.5	859.0	859.0
5007.0	10010.009	0.1167	70.8561	818.75	863.0	864.0
5032.0	10060.009	0.1166	70.79539	824.0	869.0	868.0
5067.0	10130.009	0.1165	70.73467	828.0	874.0	874.0
5099.0	10194.009	0.1165	70.73467	833.0	878.0	879.0
5131.0	10258.009	0.1164	70.67395	837.25	884.0	885.0
5156.0	10308.009	0.1163	70.61324	842.25	889.0	889.0
5184.0	10364.009	0.1163	70.61324	847.0	893.0	894.0
5217.0	10430.009	0.1163	70.61324	851.5	899.0	899.0
5219.0	10434.009	0.1162	70.55252	852.0	899.0	899.0