File: charts/20230801/TGA/INSATURADAS/ZSCBA.txt
08/02/2023 12:57:15
User name: Mateus
Comments:
Number	time(s)	mass(g)	Relative_mass(%)	Sample_T(C)	PV(C)	SV(C)
1.0	0.0	0.2412	100.0	27.75	66.0	66.0
13.0	22.0	0.2401	99.54395	38.5	96.0	68.0
25.0	46.0	0.24	99.50249	50.75	122.0	68.0
37.0	70.0	0.24	99.50249	59.0	131.0	68.0
49.0	94.0	0.2397	99.37811	64.75	134.0	68.0
61.0	118.001	0.2395	99.29519	69.25	136.0	68.0
74.0	144.001	0.2393	99.21227	72.5	136.0	68.0
92.0	180.001	0.239	99.08789	75.75	134.0	68.0
129.0	254.009	0.2382	98.75622	78.75	129.0	68.0
495.0	986.009	0.2359	97.80265	63.25	99.0	68.0
649.0	1294.009	0.236	97.84411	57.5	95.0	88.0
891.0	1780.15	0.2352	97.51244	82.0	131.0	129.0
909.0	1816.15	0.2353	97.5539	85.0	134.0	132.0
934.0	1866.15	0.235	97.42952	88.0	138.0	136.0
955.0	1908.15	0.2346	97.26368	91.25	142.0	140.0
976.0	1950.15	0.2346	97.26368	94.25	146.0	143.0
998.0	1994.151	0.2342	97.09784	97.25	148.0	147.0
1017.0	2032.151	0.234	97.01493	100.25	152.0	150.0
1037.0	2072.153	0.2337	96.89055	103.25	156.0	154.0
1058.0	2114.153	0.2334	96.76617	106.25	158.0	157.0
1081.0	2160.153	0.2333	96.72471	109.5	162.0	161.0
1098.0	2194.153	0.2331	96.64179	112.5	166.0	164.0
1120.0	2238.153	0.2327	96.47595	115.5	168.0	167.0
1137.0	2272.153	0.2325	96.39303	118.75	173.0	170.0
1160.0	2318.153	0.2321	96.2272	121.75	175.0	174.0
1183.0	2364.153	0.2318	96.10282	124.75	178.0	178.0
1200.0	2398.155	0.2315	95.97844	128.0	183.0	181.0
1223.0	2444.155	0.231	95.77114	131.0	185.0	185.0
1247.0	2492.155	0.2306	95.60531	134.0	189.0	189.0
1262.0	2522.155	0.2305	95.56385	137.0	192.0	191.0
1285.0	2568.155	0.2302	95.43947	140.0	195.0	195.0
1302.0	2602.155	0.2297	95.23217	143.25	200.0	198.0
1326.0	2650.155	0.2291	94.98342	146.25	203.0	202.0
1349.0	2696.155	0.2289	94.9005	149.25	206.0	206.0
1364.0	2726.155	0.2283	94.65174	152.5	209.0	208.0
1383.0	2764.155	0.228	94.52736	155.5	213.0	211.0
1406.0	2810.157	0.2275	94.32007	158.75	216.0	215.0
1425.0	2848.157	0.227	94.11277	161.75	219.0	219.0
1450.0	2898.158	0.2264	93.86401	165.0	222.0	223.0
1467.0	2932.158	0.2258	93.61526	168.25	226.0	226.0
1490.0	2978.158	0.2255	93.49088	171.75	230.0	229.0
1510.0	3018.158	0.2249	93.24212	175.0	233.0	233.0
1532.0	3062.158	0.2242	92.95191	178.25	237.0	236.0
1550.0	3098.158	0.2238	92.78607	181.25	240.0	239.0
1568.0	3134.158	0.2231	92.49585	184.75	243.0	242.0
1589.0	3176.16	0.2225	92.2471	187.75	245.0	246.0
1603.0	3204.16	0.222	92.0398	190.75	249.0	248.0
1621.0	3240.16	0.2215	91.8325	193.75	251.0	251.0
1646.0	3290.16	0.2205	91.41791	196.75	255.0	256.0
1666.0	3330.16	0.2199	91.16915	199.75	259.0	259.0
1684.0	3366.16	0.219	90.79602	202.75	263.0	262.0
1705.0	3408.161	0.2186	90.63018	205.75	266.0	265.0
1721.0	3440.163	0.218	90.38143	208.75	268.0	268.0
1739.0	3476.163	0.2172	90.04975	212.0	271.0	271.0
1763.0	3524.163	0.2165	89.75954	215.0	275.0	275.0
1781.0	3560.163	0.2158	89.46932	218.25	278.0	278.0
1797.0	3592.163	0.2154	89.30348	221.5	281.0	281.0
1816.0	3630.163	0.2152	89.22056	224.5	284.0	284.0
1830.0	3658.164	0.2146	88.97181	227.5	287.0	286.0
1850.0	3698.164	0.2137	88.59867	230.5	290.0	290.0
1873.0	3744.164	0.2132	88.39138	233.5	293.0	294.0
1888.0	3774.164	0.2127	88.18408	236.5	296.0	296.0
1905.0	3808.164	0.2123	88.01824	239.75	299.0	299.0
1923.0	3844.164	0.2117	87.76949	242.75	302.0	302.0
1948.0	3894.164	0.2112	87.56219	245.75	306.0	306.0
1963.0	3924.168	0.211	87.47927	248.75	309.0	309.0
1980.0	3958.168	0.2106	87.31343	251.75	311.0	311.0
1997.0	3992.168	0.2105	87.27197	254.75	314.0	314.0
2019.0	4036.168	0.21	87.06468	257.75	318.0	318.0
2035.0	4068.168	0.2098	86.98176	260.75	321.0	321.0
2052.0	4102.168	0.2097	86.9403	263.75	324.0	323.0
2069.0	4136.168	0.2094	86.81592	266.75	326.0	326.0
2091.0	4180.17	0.209	86.65008	270.0	329.0	330.0
2107.0	4212.17	0.2091	86.69154	273.25	333.0	333.0
2123.0	4244.17	0.2088	86.56716	276.25	335.0	335.0
2140.0	4278.17	0.2088	86.56716	279.25	338.0	338.0
2154.0	4306.17	0.2089	86.60862	282.5	341.0	341.0
2176.0	4350.17	0.2085	86.44279	285.5	344.0	344.0
2190.0	4378.173	0.2083	86.35987	288.5	347.0	347.0
2211.0	4420.173	0.2082	86.31841	291.75	350.0	350.0
2227.0	4452.174	0.2081	86.27695	295.0	353.0	353.0
2247.0	4492.178	0.208	86.23549	298.25	356.0	356.0
2272.0	4542.181	0.2079	86.19403	301.25	359.0	360.0
2286.0	4570.182	0.2077	86.11111	304.5	363.0	363.0
2303.0	4604.183	0.2078	86.15257	307.75	366.0	365.0
2317.0	6910.93	0.2047	84.86733	512.0	559.0	559.0
2333.0	6942.93	0.2048	84.90879	515.0	561.0	561.0
2352.0	6980.93	0.2046	84.82587	518.25	564.0	564.0
2373.0	7022.93	0.205	84.99171	521.5	567.0	568.0
2392.0	7060.93	0.2047	84.86733	525.5	571.0	571.0
2406.0	7088.932	0.2046	84.82587	528.75	574.0	573.0
2428.0	7132.933	0.2046	84.82587	531.75	577.0	577.0
2443.0	7162.933	0.2046	84.82587	534.75	580.0	580.0
2462.0	7200.933	0.2045	84.78441	537.75	583.0	583.0
2481.0	7238.933	0.2046	84.82587	540.75	585.0	586.0
2499.0	7274.934	0.2045	84.78441	544.0	589.0	589.0
2513.0	7302.934	0.2044	84.74295	547.0	591.0	591.0
2534.0	7344.934	0.2044	84.74295	550.0	595.0	595.0
2549.0	7374.935	0.2045	84.78441	553.0	597.0	597.0
2570.0	7416.937	0.2044	84.74295	557.0	600.0	601.0
2590.0	7456.937	0.2042	84.66003	560.5	604.0	604.0
2606.0	7488.942	0.2042	84.66003	563.75	607.0	607.0
2624.0	7524.947	0.2045	84.78441	566.75	610.0	610.0
2645.0	7566.947	0.2042	84.66003	569.75	613.0	613.0
2662.0	7600.947	0.2043	84.70149	572.75	616.0	616.0
2678.0	7632.949	0.2042	84.66003	575.75	619.0	619.0
2696.0	7668.954	0.2043	84.70149	578.75	622.0	622.0
2714.0	7704.958	0.2043	84.70149	581.75	625.0	625.0
2732.0	7740.958	0.2044	84.74295	584.75	628.0	628.0
2750.0	7776.961	0.2043	84.70149	587.75	630.0	631.0
2768.0	7812.961	0.2043	84.70149	591.0	634.0	634.0
2786.0	7848.961	0.2042	84.66003	594.0	637.0	637.0
2804.0	7884.964	0.2042	84.66003	597.0	640.0	640.0
2826.0	7928.965	0.2041	84.61857	600.5	643.0	644.0
2839.0	7954.969	0.2041	84.61857	604.0	646.0	646.0
2855.0	7986.972	0.2041	84.61857	607.0	649.0	649.0
2877.0	8030.973	0.204	84.57711	610.0	652.0	652.0
2897.0	8070.974	0.204	84.57711	613.0	656.0	656.0
2912.0	8100.974	0.2042	84.66003	616.5	658.0	658.0
2934.0	8144.974	0.2038	84.4942	619.5	662.0	662.0
2953.0	8182.98	0.204	84.57711	622.5	665.0	665.0
2972.0	8220.98	0.2042	84.66003	625.75	668.0	668.0
2990.0	8256.98	0.2038	84.4942	629.0	671.0	671.0
3004.0	8284.982	0.2039	84.53566	632.5	674.0	674.0
3023.0	8322.983	0.2039	84.53566	635.5	676.0	677.0
3042.0	8360.983	0.2039	84.53566	638.5	680.0	680.0
3064.0	8404.985	0.2038	84.4942	641.75	684.0	684.0
3085.0	8446.986	0.2037	84.45274	645.0	687.0	687.0
3103.0	8482.986	0.2037	84.45274	648.0	690.0	690.0
3123.0	8522.987	0.2037	84.45274	651.0	693.0	694.0
3136.0	8548.987	0.2037	84.45274	655.0	696.0	696.0
3159.0	8594.995	0.2038	84.4942	658.25	699.0	700.0
3180.0	8636.995	0.2037	84.45274	661.25	703.0	703.0
3199.0	8674.995	0.2036	84.41128	664.25	706.0	706.0
3219.0	8714.995	0.2036	84.41128	667.25	709.0	710.0
3239.0	8755.0	0.2036	84.41128	670.75	712.0	713.0
3256.0	8789.0	0.2036	84.41128	674.5	716.0	716.0
3275.0	8827.003	0.2035	84.36982	677.5	719.0	719.0
3292.0	8861.009	0.2034	84.32836	680.5	722.0	722.0
3310.0	8897.009	0.2036	84.41128	683.5	725.0	725.0
3332.0	8941.009	0.2037	84.45274	686.75	729.0	729.0
3348.0	8973.012	0.2037	84.45274	690.25	730.0	731.0
3368.0	9013.014	0.2037	84.45274	693.5	734.0	735.0
3388.0	9053.016	0.2037	84.45274	696.5	738.0	738.0
3406.0	9089.016	0.2036	84.41128	699.5	741.0	741.0
3426.0	9129.016	0.2036	84.41128	702.5	744.0	744.0
3438.0	9153.018	0.2037	84.45274	706.0	746.0	746.0
3461.0	9199.018	0.2036	84.41128	709.5	750.0	750.0
3484.0	9245.019	0.2037	84.45274	712.5	754.0	754.0
3503.0	9283.021	0.2036	84.41128	715.5	757.0	757.0
3518.0	9313.021	0.2037	84.45274	718.75	759.0	760.0
3543.0	9363.021	0.2035	84.36982	722.5	764.0	764.0
3566.0	9409.021	0.2038	84.4942	725.75	767.0	768.0
3585.0	9447.021	0.2037	84.45274	728.75	770.0	771.0
3600.0	9477.021	0.2037	84.45274	731.75	773.0	773.0
3624.0	9525.024	0.2037	84.45274	735.5	777.0	777.0
3643.0	9563.025	0.2035	84.36982	738.5	781.0	781.0
3662.0	9601.025	0.2037	84.45274	741.5	783.0	784.0
3679.0	9635.025	0.2035	84.36982	745.75	787.0	787.0
3707.0	9691.025	0.2033	84.2869	748.75	791.0	791.0
3732.0	9741.026	0.2035	84.36982	751.75	794.0	795.0
3744.0	9765.026	0.2035	84.36982	755.5	797.0	797.0
3768.0	9813.026	0.2034	84.32836	758.75	801.0	801.0
3789.0	9855.026	0.2035	84.36982	762.0	805.0	805.0
3808.0	9893.026	0.2035	84.36982	765.0	808.0	808.0
3824.0	9925.026	0.2035	84.36982	768.75	811.0	811.0
3853.0	9983.028	0.2034	84.32836	772.0	815.0	816.0
3870.0	10017.028	0.2035	84.36982	775.0	818.0	819.0
3883.0	10043.028	0.2034	84.32836	778.75	821.0	821.0
3916.0	10109.028	0.2033	84.2869	781.75	824.0	826.0
3935.0	10147.028	0.2035	84.36982	785.75	828.0	829.0
3959.0	10195.028	0.2032	84.24544	789.5	833.0	833.0
3979.0	10235.028	0.2036	84.41128	792.5	837.0	837.0
3996.0	10269.029	0.2035	84.36982	796.0	839.0	840.0
4020.0	10317.029	0.2014	83.49917	799.5	843.0	844.0
4044.0	10365.029	0.2034	84.32836	802.75	847.0	848.0
4060.0	10397.029	0.2034	84.32836	806.75	851.0	850.0
4088.0	10453.031	0.2033	84.2869	810.0	854.0	855.0
4108.0	10493.032	0.2033	84.2869	813.0	858.0	858.0
4123.0	10523.032	0.2023	83.87231	816.25	861.0	861.0
4148.0	10573.033	0.2034	84.32836	819.25	864.0	865.0
4164.0	10605.033	0.2031	84.20398	822.25	867.0	868.0
4187.0	10651.034	0.2035	84.36982	825.75	871.0	872.0
4207.0	10691.034	0.2029	84.12106	829.0	875.0	875.0
4225.0	10727.034	0.2033	84.2869	832.5	878.0	878.0
4246.0	10769.034	0.2034	84.32836	835.5	881.0	882.0
4269.0	10815.037	0.2028	84.0796	838.75	885.0	885.0
4288.0	10853.037	0.2033	84.2869	842.0	889.0	889.0
4314.0	10905.037	0.2033	84.2869	845.25	892.0	893.0
4332.0	10941.037	0.2033	84.2869	848.5	895.0	896.0
4352.0	10981.038	0.2029	84.12106	851.75	898.0	899.0
4369.0	11015.038	0.2032	84.24544	850.5	901.0	900.0