File: charts/20230801/DTA/INSATURADAS/STD 5A.txt
#FILE:                       ;DTA_Z5A 20-05-23.ngb-dd9
#FORMAT:                     ;NETZSCH5
#IDENTITY:                   ;Mariana
#DECIMAL:                    ;POINT
#SEPARATOR:                  ;SEMICOLON
#MTYPE:                      ;DTA
#INSTRUMENT:                 ;NETZSCH DSC 404F3
#PROJECT:                    ;Mariana
#DATE/TIME:                  ;11/06/2023 16:04:32
#CORR. FILE:                 ;DTA_Branco 19-05-23.ngb-bd9
#LABORATORY:                 ;DSC/DTA
#OPERATOR:                   ;Pamela
#REMARK:                     ;Mariana
#SAMPLE:                     ;Z5A
#SAMPLE MASS /mg:            ;231.5
#MATERIAL:                   ;B2O3
#REFERENCE:                  ;Empty
#REFERENCE MASS /mg:         ;0
#TYPE OF CRUCIBLE:           ;DTA/TG crucible Al2O3
#SAMPLE CRUCIBLE MASS /mg:   ;1333.42
#REFERENCE CRUCIBLE MASS /mg:;1349.49
#CORR. CODE:                 ;020
#EXO:                        ;-1
#RANGE:                      ;20/10.0(K/min)/1300
#SEGMENT:                    ;S1/1

##Temp./øC;Time/min;DTA/(uV/mg);Sensit./(uV/mW)
  18.74900;0.0000e+000;-2.0795e-002;1.00000
  18.76400;    0.53000;-1.5516e-002;1.00000
  19.12300;    1.06000;-1.1238e-002;1.00000
  20.01400;    1.59000;-6.7396e-003;1.00000
  21.42000;    2.12000;-1.6478e-003;1.00000
  23.33200;    2.65000; 3.6318e-003;1.00000
  25.73500;    3.18000; 8.7961e-003;1.00000
  28.65900;    3.71000; 1.3868e-002;1.00000
  32.21800;    4.24000; 1.8920e-002;1.00000
  36.38200;    4.77000; 2.4141e-002;1.00000
  41.14100;    5.30000; 2.9522e-002;1.00000
  46.43700;    5.83000; 3.4871e-002;1.00000
  52.27800;    6.36000; 4.0190e-002;1.00000
  58.62000;    6.89000; 4.5401e-002;1.00000
  65.39300;    7.42000; 5.0809e-002;1.00000
  72.47400;    7.95000; 5.6547e-002;1.00000
  79.84100;    8.48000; 6.2686e-002;1.00000
  87.44000;    9.01000; 6.9584e-002;1.00000
  95.23900;    9.54000; 7.7385e-002;1.00000
 103.108;   10.07000; 8.6718e-002;1.00000
 110.956;   10.60000; 9.7215e-002;1.00000
 118.759;   11.13000;     0.10837;1.00000
 126.468;   11.66000;     0.11959;1.00000
 134.063;   12.19000;     0.13015;1.00000
 141.517;   12.72000;     0.13943;1.00000
 148.795;   13.25000;     0.14697;1.00000
 155.886;   13.78000;     0.15270;1.00000
 162.737;   14.31000;     0.15662;1.00000
 169.347;   14.84000;     0.15903;1.00000
 175.764;   15.37000;     0.16013;1.00000
 181.97;   15.90000;     0.16016;1.00000
 188.005;   16.43000;     0.15935;1.00000
 193.879;   16.96000;     0.15462;1.00000
 199.567;   17.49000;     0.15267;1.00000
 205.112;   18.02000;     0.14965;1.00000
 210.513;   18.55000;     0.14521;1.00000
 215.819;   19.08000;     0.14029;1.00000
 221.001;   19.61000;     0.13437;1.00000
 226.151;   20.14000;     0.12735;1.00000
 231.225;   20.67000;     0.11919;1.00000
 236.248;   21.20000;     0.10978;1.00000
 241.262;   21.73000; 9.9202e-002;1.00000
 246.264;   22.26000; 8.7450e-002;1.00000
 251.24;   22.79000; 7.4498e-002;1.00000
 256.23;   23.32000; 6.0294e-002;1.00000
 261.218;   23.85000; 4.5035e-002;1.00000
 266.238;   24.38000; 2.8972e-002;1.00000
 271.264;   24.91000; 1.2299e-002;1.00000
 276.304;   25.44000;-4.7490e-003;1.00000
 281.361;   25.97000;-2.1787e-002;1.00000
 286.449;   26.50000;-3.8480e-002;1.00000
 291.54;   27.03000;-5.4658e-002;1.00000
 296.65;   27.56000;-6.9851e-002;1.00000
 301.777;   28.09000;-8.4035e-002;1.00000
 306.899;   28.62000;-9.7267e-002;1.00000
 312.074;   29.15000;    -0.10941;1.00000
 317.245;   29.68000;    -0.12050;1.00000
 322.421;   30.21000;    -0.13058;1.00000
 327.605;   30.74000;    -0.13972;1.00000
 332.781;   31.27000;    -0.14805;1.00000
 337.98;   31.80000;    -0.15565;1.00000
 343.175;   32.33000;    -0.16241;1.00000
 348.393;   32.86000;    -0.16871;1.00000
 353.609;   33.39000;    -0.17426;1.00000
 358.81;   33.92000;    -0.17931;1.00000
 364.033;   34.45000;    -0.18399;1.00000
 369.263;   34.98000;    -0.18834;1.00000
 374.495;   35.51000;    -0.19230;1.00000
 379.727;   36.04000;    -0.19597;1.00000
 384.972;   36.57000;    -0.19940;1.00000
 390.208;   37.10000;    -0.20257;1.00000
 395.448;   37.63000;    -0.20557;1.00000
 400.691;   38.16000;    -0.20829;1.00000
 405.934;   38.69000;    -0.21081;1.00000
 411.185;   39.22000;    -0.21324;1.00000
 416.441;   39.75000;    -0.21542;1.00000
 421.686;   40.28000;    -0.21745;1.00000
 426.938;   40.81000;    -0.21930;1.00000
 432.193;   41.34000;    -0.22096;1.00000
 437.456;   41.87000;    -0.22240;1.00000
 442.721;   42.40000;    -0.22374;1.00000
 447.984;   42.93000;    -0.22492;1.00000
 453.242;   43.46000;    -0.22586;1.00000
 458.498;   43.99000;    -0.22663;1.00000
 463.763;   44.52000;    -0.22717;1.00000
 469.032;   45.05000;    -0.22750;1.00000
 474.293;   45.58000;    -0.22759;1.00000
 479.571;   46.11000;    -0.22735;1.00000
 484.833;   46.64000;    -0.22687;1.00000
 490.118;   47.17000;    -0.22606;1.00000
 495.371;   47.70000;    -0.22495;1.00000
 500.649;   48.23000;    -0.22354;1.00000
 505.929;   48.76000;    -0.22173;1.00000
 511.206;   49.29000;    -0.21981;1.00000
 516.485;   49.82000;    -0.21735;1.00000
 521.747;   50.35000;    -0.21467;1.00000
 527.032;   50.88000;    -0.21178;1.00000
 532.316;   51.41000;    -0.20874;1.00000
 537.59;   51.94000;    -0.20549;1.00000
 542.881;   52.47000;    -0.20223;1.00000
 548.141;   53.00000;    -0.19907;1.00000
 553.434;   53.53000;    -0.19594;1.00000
 558.725;   54.06000;    -0.19295;1.00000
 564.009;   54.59000;    -0.19014;1.00000
 569.305;   55.12000;    -0.18755;1.00000
 574.588;   55.65000;    -0.18526;1.00000
 579.882;   56.18000;    -0.18306;1.00000
 585.163;   56.71000;    -0.18122;1.00000
 590.455;   57.24000;    -0.17955;1.00000
 595.756;   57.77000;    -0.17804;1.00000
 601.061;   58.30000;    -0.17669;1.00000
 606.359;   58.83000;    -0.17555;1.00000
 611.662;   59.36000;    -0.17449;1.00000
 616.958;   59.89000;    -0.17353;1.00000
 622.258;   60.42000;    -0.17256;1.00000
 627.555;   60.95000;    -0.17178;1.00000
 632.848;   61.48000;    -0.17112;1.00000
 638.158;   62.01000;    -0.17046;1.00000
 643.458;   62.54000;    -0.16977;1.00000
 648.755;   63.07000;    -0.16926;1.00000
 654.058;   63.60000;    -0.16875;1.00000
 659.359;   64.13000;    -0.16825;1.00000
 664.654;   64.66000;    -0.16783;1.00000
 669.962;   65.19000;    -0.16736;1.00000
 675.252;   65.72000;    -0.16694;1.00000
 680.558;   66.25000;    -0.16650;1.00000
 685.867;   66.78000;    -0.16607;1.00000
 691.166;   67.31000;    -0.16564;1.00000
 696.469;   67.84000;    -0.16529;1.00000
 701.776;   68.37000;    -0.16484;1.00000
 707.078;   68.90000;    -0.16441;1.00000
 712.378;   69.43000;    -0.16397;1.00000
 717.692;   69.96000;    -0.16362;1.00000
 723.001;   70.49000;    -0.16314;1.00000
 728.305;   71.02000;    -0.16270;1.00000
 733.602;   71.55000;    -0.16219;1.00000
 738.907;   72.08000;    -0.16174;1.00000
 744.215;   72.61000;    -0.16115;1.00000
 749.514;   73.14000;    -0.16077;1.00000
 754.815;   73.67000;    -0.16026;1.00000
 760.122;   74.20000;    -0.15969;1.00000
 765.436;   74.73000;    -0.15919;1.00000
 770.731;   75.26000;    -0.15871;1.00000
 776.041;   75.79000;    -0.15816;1.00000
 781.347;   76.32000;    -0.15763;1.00000
 786.641;   76.85000;    -0.15714;1.00000
 791.945;   77.38000;    -0.15652;1.00000
 797.266;   77.91000;    -0.15588;1.00000
 802.565;   78.44000;    -0.15525;1.00000
 807.877;   78.97000;    -0.15473;1.00000
 813.184;   79.50000;    -0.15421;1.00000
 818.475;   80.03000;    -0.15371;1.00000
 823.795;   80.56000;    -0.15329;1.00000
 829.104;   81.09000;    -0.15299;1.00000
 834.404;   81.62000;    -0.15279;1.00000
 839.701;   82.15000;    -0.15261;1.00000
 845.03;   82.68000;    -0.15263;1.00000
 850.343;   83.21000;    -0.15278;1.00000
 855.655;   83.74000;    -0.15337;1.00000
 860.977;   84.27000;    -0.15414;1.00000
 866.284;   84.80000;    -0.15537;1.00000
 871.603;   85.33000;    -0.15698;1.00000
 876.909;   85.86000;    -0.15908;1.00000
 882.222;   86.39000;    -0.16179;1.00000
 887.517;   86.92000;    -0.16451;1.00000
 892.835;   87.45000;    -0.16670;1.00000
 898.154;   87.98000;    -0.16731;1.00000
 903.452;   88.51000;    -0.16626;1.00000
 908.76;   89.04000;    -0.16495;1.00000
 914.071;   89.57000;    -0.16673;1.00000
 919.386;   90.10000;    -0.17358;1.00000
 924.711;   90.63000;    -0.18281;1.00000
 930.034;   91.16000;    -0.18674;1.00000
 935.339;   91.69000;    -0.18164;1.00000
 940.65;   92.22000;    -0.17029;1.00000
 945.949;   92.75000;    -0.15696;1.00000
 951.229;   93.28000;    -0.14441;1.00000
 956.517;   93.81000;    -0.13413;1.00000
 961.805;   94.34000;    -0.12662;1.00000
 967.115;   94.87000;    -0.12165;1.00000
 972.432;   95.40000;    -0.11868;1.00000
 977.735;   95.93000;    -0.11726;1.00000
 983.06;   96.46000;    -0.11677;1.00000
 988.39;   96.99000;    -0.11706;1.00000
 993.714;   97.52000;    -0.11766;1.00000
 999.034;   98.05000;    -0.11860;1.00000
1004.35;   98.58000;    -0.11970;1.00000
1009.68;   99.11000;    -0.12099;1.00000
1014.99;   99.64000;    -0.12234;1.00000
1020.32;  100.17;    -0.12364;1.00000
1025.63;  100.7;    -0.12514;1.00000
1030.95;  101.23;    -0.12663;1.00000
1036.26;  101.76;    -0.12819;1.00000
1041.58;  102.29;    -0.12971;1.00000
1046.89;  102.82;    -0.13133;1.00000
1052.21;  103.35;    -0.13295;1.00000
1057.52;  103.88;    -0.13468;1.00000
1062.83;  104.41;    -0.13642;1.00000
1068.14;  104.94;    -0.13815;1.00000
1073.46;  105.47;    -0.13999;1.00000
1078.78;  106;    -0.14181;1.00000
1084.11;  106.53;    -0.14386;1.00000
1089.4;  107.06;    -0.14597;1.00000
1094.73;  107.59;    -0.14821;1.00000
1100.03;  108.12;    -0.15059;1.00000
1105.34;  108.65;    -0.15318;1.00000
1110.66;  109.18;    -0.15601;1.00000
1115.97;  109.71;    -0.15900;1.00000
1121.3;  110.24;    -0.16214;1.00000
1126.61;  110.77;    -0.16507;1.00000
1131.92;  111.3;    -0.16792;1.00000
1137.23;  111.83;    -0.17064;1.00000
1142.55;  112.36;    -0.17317;1.00000
1147.86;  112.89;    -0.17533;1.00000
1153.18;  113.42;    -0.17720;1.00000
1158.49;  113.95;    -0.17874;1.00000
1163.8;  114.48;    -0.17991;1.00000
1169.12;  115.01;    -0.18098;1.00000
1174.42;  115.54;    -0.18194;1.00000
1179.74;  116.07;    -0.18270;1.00000
1185.04;  116.6;    -0.18324;1.00000
1190.34;  117.13;    -0.18363;1.00000
1195.66;  117.66;    -0.18414;1.00000
1200.96;  118.19;    -0.18441;1.00000
1206.28;  118.72;    -0.18469;1.00000
1211.6;  119.25;    -0.18503;1.00000
1216.91;  119.78;    -0.18527;1.00000
1222.24;  120.31;    -0.18553;1.00000
1227.55;  120.84;    -0.18567;1.00000
1232.85;  121.37;    -0.18609;1.00000
1238.15;  121.9;    -0.18631;1.00000
1243.46;  122.43;    -0.18651;1.00000
1248.77;  122.96;    -0.18652;1.00000
1254.1;  123.49;    -0.18650;1.00000
1259.43;  124.02;    -0.18635;1.00000
1264.75;  124.55;    -0.18567;1.00000
1270.05;  125.08;    -0.18459;1.00000
1275.37;  125.61;    -0.18360;1.00000
1280.67;  126.14;    -0.18250;1.00000
1285.97;  126.67;    -0.18128;1.00000
1291.27;  127.2;    -0.17946;1.00000
1296.56;  127.73;    -0.17647;1.00000
1299.17;  127.99;    -0.17418;1.00000