File: charts/20230801/DTA/INSATURADAS/STD 4A.txt
#FILE:                       ;DTA_Z4A 19-05-23.ngb-dd9
#FORMAT:                     ;NETZSCH5
#IDENTITY:                   ;Mariana
#DECIMAL:                    ;POINT
#SEPARATOR:                  ;SEMICOLON
#MTYPE:                      ;DTA
#INSTRUMENT:                 ;NETZSCH DSC 404F3
#PROJECT:                    ;Mariana
#DATE/TIME:                  ;11/06/2023 12:45:57
#CORR. FILE:                 ;DTA_Branco 19-05-23.ngb-bd9
#LABORATORY:                 ;DSC/DTA
#OPERATOR:                   ;Pamela
#REMARK:                     ;Mariana
#SAMPLE:                     ;Z4A
#SAMPLE MASS /mg:            ;122.42
#MATERIAL:                   ;B2O3
#REFERENCE:                  ;Empty
#REFERENCE MASS /mg:         ;0
#TYPE OF CRUCIBLE:           ;DTA/TG crucible Al2O3
#SAMPLE CRUCIBLE MASS /mg:   ;1349.82
#REFERENCE CRUCIBLE MASS /mg:;1349.49
#CORR. CODE:                 ;020
#EXO:                        ;-1
#RANGE:                      ;20/10.0(K/min)/1300
#SEGMENT:                    ;S1/1

##Temp./øC;Time/min;DTA/(uV/mg);Sensit./(uV/mW)
  20.54600;0.0000e+000;-2.4474e-002;1.00000
  20.67800;    0.53000;-1.6951e-002;1.00000
  21.11800;    1.06000;-1.1642e-002;1.00000
  22.06600;    1.59000;-6.6622e-003;1.00000
  23.43800;    2.12000;-1.4334e-003;1.00000
  25.23200;    2.65000; 3.6458e-003;1.00000
  27.50000;    3.18000; 8.3386e-003;1.00000
  30.32000;    3.71000; 1.2346e-002;1.00000
  33.73300;    4.24000; 1.5767e-002;1.00000
  37.74100;    4.77000; 1.8989e-002;1.00000
  42.37800;    5.30000; 2.2411e-002;1.00000
  47.56900;    5.83000; 2.5838e-002;1.00000
  53.30900;    6.36000; 2.9653e-002;1.00000
  59.51800;    6.89000; 3.3323e-002;1.00000
  66.19400;    7.42000; 3.6788e-002;1.00000
  73.16300;    7.95000; 4.1113e-002;1.00000
  80.46900;    8.48000; 4.6361e-002;1.00000
  87.99900;    9.01000; 5.2905e-002;1.00000
  95.70100;    9.54000; 6.0203e-002;1.00000
 103.505;   10.07000; 6.8448e-002;1.00000
 111.287;   10.60000; 7.6662e-002;1.00000
 119.034;   11.13000; 8.4227e-002;1.00000
 126.668;   11.66000; 9.0927e-002;1.00000
 134.232;   12.19000; 9.6455e-002;1.00000
 141.675;   12.72000;     0.10094;1.00000
 148.928;   13.25000;     0.10408;1.00000
 155.984;   13.78000;     0.10605;1.00000
 162.837;   14.31000;     0.10694;1.00000
 169.447;   14.84000;     0.10721;1.00000
 175.866;   15.37000;     0.10684;1.00000
 182.067;   15.90000;     0.10586;1.00000
 188.09;   16.43000;     0.10442;1.00000
 193.953;   16.96000;     0.10211;1.00000
 199.634;   17.49000; 9.8636e-002;1.00000
 205.133;   18.02000; 9.3501e-002;1.00000
 210.545;   18.55000; 8.6484e-002;1.00000
 215.833;   19.08000; 7.7254e-002;1.00000
 221.019;   19.61000; 6.5369e-002;1.00000
 226.117;   20.14000; 5.0942e-002;1.00000
 231.189;   20.67000; 3.4015e-002;1.00000
 236.207;   21.20000; 1.4882e-002;1.00000
 241.197;   21.73000;-5.9455e-003;1.00000
 246.188;   22.26000;-2.7814e-002;1.00000
 251.16;   22.79000;-5.0169e-002;1.00000
 256.141;   23.32000;-7.2168e-002;1.00000
 261.126;   23.85000;-9.3277e-002;1.00000
 266.129;   24.38000;    -0.11327;1.00000
 271.147;   24.91000;    -0.13172;1.00000
 276.161;   25.44000;    -0.14869;1.00000
 281.204;   25.97000;    -0.16410;1.00000
 286.259;   26.50000;    -0.17763;1.00000
 291.327;   27.03000;    -0.19056;1.00000
 296.437;   27.56000;    -0.20229;1.00000
 301.55;   28.09000;    -0.21267;1.00000
 306.667;   28.62000;    -0.22176;1.00000
 311.822;   29.15000;    -0.22965;1.00000
 316.984;   29.68000;    -0.23698;1.00000
 322.157;   30.21000;    -0.24373;1.00000
 327.365;   30.74000;    -0.25006;1.00000
 332.555;   31.27000;    -0.25627;1.00000
 337.761;   31.80000;    -0.26219;1.00000
 342.972;   32.33000;    -0.26762;1.00000
 348.186;   32.86000;    -0.27278;1.00000
 353.412;   33.39000;    -0.27747;1.00000
 358.639;   33.92000;    -0.28173;1.00000
 363.89;   34.45000;    -0.28562;1.00000
 369.13;   34.98000;    -0.28906;1.00000
 374.374;   35.51000;    -0.29195;1.00000
 379.613;   36.04000;    -0.29464;1.00000
 384.852;   36.57000;    -0.29699;1.00000
 390.104;   37.10000;    -0.29901;1.00000
 395.352;   37.63000;    -0.30077;1.00000
 400.626;   38.16000;    -0.30209;1.00000
 405.872;   38.69000;    -0.30310;1.00000
 411.117;   39.22000;    -0.30372;1.00000
 416.376;   39.75000;    -0.30386;1.00000
 421.636;   40.28000;    -0.30364;1.00000
 426.908;   40.81000;    -0.30310;1.00000
 432.161;   41.34000;    -0.30208;1.00000
 437.421;   41.87000;    -0.30069;1.00000
 442.695;   42.40000;    -0.29897;1.00000
 447.951;   42.93000;    -0.29684;1.00000
 453.207;   43.46000;    -0.29460;1.00000
 458.477;   43.99000;    -0.29217;1.00000
 463.743;   44.52000;    -0.28956;1.00000
 469.005;   45.05000;    -0.28698;1.00000
 474.279;   45.58000;    -0.28494;1.00000
 479.543;   46.11000;    -0.28258;1.00000
 484.814;   46.64000;    -0.28051;1.00000
 490.078;   47.17000;    -0.27879;1.00000
 495.36;   47.70000;    -0.27731;1.00000
 500.642;   48.23000;    -0.27600;1.00000
 505.912;   48.76000;    -0.27492;1.00000
 511.204;   49.29000;    -0.27411;1.00000
 516.48;   49.82000;    -0.27350;1.00000
 521.762;   50.35000;    -0.27297;1.00000
 527.055;   50.88000;    -0.27256;1.00000
 532.349;   51.41000;    -0.27214;1.00000
 537.636;   51.94000;    -0.27193;1.00000
 542.924;   52.47000;    -0.27173;1.00000
 548.209;   53.00000;    -0.27167;1.00000
 553.498;   53.53000;    -0.27170;1.00000
 558.794;   54.06000;    -0.27179;1.00000
 564.085;   54.59000;    -0.27196;1.00000
 569.367;   55.12000;    -0.27204;1.00000
 574.656;   55.65000;    -0.27218;1.00000
 579.947;   56.18000;    -0.27225;1.00000
 585.255;   56.71000;    -0.27244;1.00000
 590.548;   57.24000;    -0.27246;1.00000
 595.826;   57.77000;    -0.27256;1.00000
 601.127;   58.30000;    -0.27264;1.00000
 606.421;   58.83000;    -0.27271;1.00000
 611.714;   59.36000;    -0.27286;1.00000
 617.011;   59.89000;    -0.27283;1.00000
 622.293;   60.42000;    -0.27270;1.00000
 627.594;   60.95000;    -0.27266;1.00000
 632.881;   61.48000;    -0.27266;1.00000
 638.189;   62.01000;    -0.27265;1.00000
 643.481;   62.54000;    -0.27236;1.00000
 648.774;   63.07000;    -0.27211;1.00000
 654.083;   63.60000;    -0.27198;1.00000
 659.377;   64.13000;    -0.27170;1.00000
 664.68;   64.66000;    -0.27144;1.00000
 669.98;   65.19000;    -0.27110;1.00000
 675.273;   65.72000;    -0.27091;1.00000
 680.586;   66.25000;    -0.27071;1.00000
 685.881;   66.78000;    -0.27023;1.00000
 691.174;   67.31000;    -0.26991;1.00000
 696.487;   67.84000;    -0.26940;1.00000
 701.795;   68.37000;    -0.26919;1.00000
 707.081;   68.90000;    -0.26881;1.00000
 712.39;   69.43000;    -0.26845;1.00000
 717.7;   69.96000;    -0.26833;1.00000
 722.996;   70.49000;    -0.26822;1.00000
 728.305;   71.02000;    -0.26797;1.00000
 733.61;   71.55000;    -0.26781;1.00000
 738.922;   72.08000;    -0.26768;1.00000
 744.222;   72.61000;    -0.26745;1.00000
 749.514;   73.14000;    -0.26770;1.00000
 754.835;   73.67000;    -0.26810;1.00000
 760.137;   74.20000;    -0.26886;1.00000
 765.444;   74.73000;    -0.27069;1.00000
 770.735;   75.26000;    -0.27431;1.00000
 776.037;   75.79000;    -0.27997;1.00000
 781.359;   76.32000;    -0.28900;1.00000
 786.678;   76.85000;    -0.30323;1.00000
 791.993;   77.38000;    -0.31527;1.00000
 797.309;   77.91000;    -0.30272;1.00000
 802.594;   78.44000;    -0.27411;1.00000
 807.882;   78.97000;    -0.24904;1.00000
 813.158;   79.50000;    -0.23132;1.00000
 818.451;   80.03000;    -0.22011;1.00000
 823.75;   80.56000;    -0.21322;1.00000
 829.056;   81.09000;    -0.20929;1.00000
 834.367;   81.62000;    -0.20720;1.00000
 839.692;   82.15000;    -0.20631;1.00000
 844.996;   82.68000;    -0.20597;1.00000
 850.311;   83.21000;    -0.20592;1.00000
 855.634;   83.74000;    -0.20659;1.00000
 860.941;   84.27000;    -0.20771;1.00000
 866.256;   84.80000;    -0.20911;1.00000
 871.564;   85.33000;    -0.21086;1.00000
 876.878;   85.86000;    -0.21305;1.00000
 882.2;   86.39000;    -0.21543;1.00000
 887.52;   86.92000;    -0.21791;1.00000
 892.834;   87.45000;    -0.22072;1.00000
 898.138;   87.98000;    -0.22358;1.00000
 903.469;   88.51000;    -0.22669;1.00000
 908.781;   89.04000;    -0.22956;1.00000
 914.101;   89.57000;    -0.23244;1.00000
 919.405;   90.10000;    -0.23506;1.00000
 924.712;   90.63000;    -0.23740;1.00000
 930.022;   91.16000;    -0.23895;1.00000
 935.33;   91.69000;    -0.24001;1.00000
 940.64;   92.22000;    -0.24039;1.00000
 945.942;   92.75000;    -0.24038;1.00000
 951.244;   93.28000;    -0.24016;1.00000
 956.562;   93.81000;    -0.23996;1.00000
 961.878;   94.34000;    -0.23966;1.00000
 967.181;   94.87000;    -0.23958;1.00000
 972.5;   95.40000;    -0.23958;1.00000
 977.802;   95.93000;    -0.23973;1.00000
 983.116;   96.46000;    -0.23978;1.00000
 988.425;   96.99000;    -0.24009;1.00000
 993.728;   97.52000;    -0.24037;1.00000
 999.047;   98.05000;    -0.24060;1.00000
1004.36;   98.58000;    -0.24079;1.00000
1009.68;   99.11000;    -0.24101;1.00000
1014.99;   99.64000;    -0.24090;1.00000
1020.32;  100.17;    -0.24043;1.00000
1025.64;  100.7;    -0.24011;1.00000
1030.95;  101.23;    -0.23999;1.00000
1036.26;  101.76;    -0.23986;1.00000
1041.57;  102.29;    -0.23991;1.00000
1046.89;  102.82;    -0.24012;1.00000
1052.2;  103.35;    -0.24060;1.00000
1057.51;  103.88;    -0.24107;1.00000
1062.82;  104.41;    -0.24163;1.00000
1068.13;  104.94;    -0.24196;1.00000
1073.44;  105.47;    -0.24204;1.00000
1078.77;  106;    -0.24200;1.00000
1084.07;  106.53;    -0.24189;1.00000
1089.4;  107.06;    -0.24133;1.00000
1094.71;  107.59;    -0.24064;1.00000
1100.03;  108.12;    -0.23969;1.00000
1105.35;  108.65;    -0.23833;1.00000
1110.66;  109.18;    -0.23692;1.00000
1115.97;  109.71;    -0.23531;1.00000
1121.27;  110.24;    -0.23334;1.00000
1126.59;  110.77;    -0.23111;1.00000
1131.89;  111.3;    -0.22879;1.00000
1137.21;  111.83;    -0.22623;1.00000
1142.54;  112.36;    -0.22352;1.00000
1147.85;  112.89;    -0.22052;1.00000
1153.16;  113.42;    -0.21726;1.00000
1158.47;  113.95;    -0.21401;1.00000
1163.8;  114.48;    -0.21037;1.00000
1169.11;  115.01;    -0.20654;1.00000
1174.42;  115.54;    -0.20281;1.00000
1179.74;  116.07;    -0.19919;1.00000
1185.05;  116.6;    -0.19590;1.00000
1190.35;  117.13;    -0.19355;1.00000
1195.68;  117.66;    -0.19242;1.00000
1200.98;  118.19;    -0.19134;1.00000
1206.31;  118.72;    -0.19028;1.00000
1211.62;  119.25;    -0.18885;1.00000
1216.92;  119.78;    -0.18713;1.00000
1222.23;  120.31;    -0.18499;1.00000
1227.55;  120.84;    -0.18285;1.00000
1232.87;  121.37;    -0.18128;1.00000
1238.14;  121.9;    -0.17911;1.00000
1243.43;  122.43;    -0.17666;1.00000
1248.75;  122.96;    -0.17420;1.00000
1254.06;  123.49;    -0.17121;1.00000
1259.38;  124.02;    -0.16834;1.00000
1264.73;  124.55;    -0.16573;1.00000
1270.06;  125.08;    -0.16258;1.00000
1275.37;  125.61;    -0.15939;1.00000
1280.69;  126.14;    -0.15657;1.00000
1285.99;  126.67;    -0.15445;1.00000
1291.29;  127.2;    -0.15196;1.00000
1296.57;  127.73;    -0.14946;1.00000
1299.28;  128;    -0.14824;1.00000