File: charts/20230801/DTA/INSATURADAS/ZCFA.txt
#FILE:                       ;DTA Danilo Zeolita.ngb-dd9
#FORMAT:                     ;NETZSCH5
#IDENTITY:                   ;Danilo
#DECIMAL:                    ;POINT
#SEPARATOR:                  ;SEMICOLON
#MTYPE:                      ;DTA
#INSTRUMENT:                 ;NETZSCH DSC 404F3
#PROJECT:                    ;Danilo
#DATE/TIME:                  ;10/05/2022 09:40:23
#CORR. FILE:                 ;DTA_Branco_VidroZeolita.ngb-bd9
#LABORATORY:                 ;DSC/DTA
#OPERATOR:                   ;Eguiberto
#REMARK:                     ;Danilo
#SAMPLE:                     ;Zeolita
#SAMPLE MASS /mg:            ;110.10
#MATERIAL:                   ;Vidro + Zeolita
#REFERENCE:                  ;Empty
#REFERENCE MASS /mg:         ;0
#TYPE OF CRUCIBLE:           ;DTA/TG crucible Al2O3
#SAMPLE CRUCIBLE MASS /mg:   ;1343.6
#REFERENCE CRUCIBLE MASS /mg:;1342.95
#CORR. CODE:                 ;020
#EXO:                        ;-1
#RANGE:                      ;20/10.0(K/min)/1300
#SEGMENT:                    ;S1/1

##Temp./øC;Time/min;DTA/(uV/mg);Sensit./(uV/mW)
  18.46800;0.0000e+000; 3.3955e-004;1.00000
  18.53600;    0.53000; 3.8112e-004;1.00000
  18.93400;    1.06000; 5.6129e-004;1.00000
  19.89100;    1.59000; 1.3720e-003;1.00000
  21.36500;    2.12000; 3.3262e-003;1.00000
  23.30500;    2.65000; 5.9871e-003;1.00000
  25.77200;    3.18000; 8.5233e-003;1.00000
  28.78600;    3.71000; 1.0561e-002;1.00000
  32.43700;    4.24000; 1.2141e-002;1.00000
  36.71600;    4.77000; 1.3215e-002;1.00000
  41.61400;    5.30000; 1.4358e-002;1.00000
  47.06900;    5.83000; 1.5418e-002;1.00000
  53.03500;    6.36000; 1.6645e-002;1.00000
  59.51800;    6.89000; 1.8564e-002;1.00000
  66.39100;    7.42000; 2.1752e-002;1.00000
  73.57000;    7.95000; 2.6284e-002;1.00000
  81.00200;    8.48000; 3.1897e-002;1.00000
  88.65400;    9.01000; 3.7724e-002;1.00000
  96.44800;    9.54000; 4.4571e-002;1.00000
 104.295;   10.07000; 5.5415e-002;1.00000
 112.103;   10.60000; 6.2913e-002;1.00000
 119.831;   11.13000; 6.8505e-002;1.00000
 127.476;   11.66000; 6.8831e-002;1.00000
 134.998;   12.19000; 6.5394e-002;1.00000
 142.397;   12.72000; 5.9809e-002;1.00000
 149.615;   13.25000; 5.3198e-002;1.00000
 156.6;   13.78000; 4.6199e-002;1.00000
 163.384;   14.31000; 3.8958e-002;1.00000
 169.936;   14.84000; 3.1862e-002;1.00000
 176.297;   15.37000; 2.4856e-002;1.00000
 182.443;   15.90000; 1.7608e-002;1.00000
 188.389;   16.43000; 9.9854e-003;1.00000
 194.201;   16.96000; 1.3305e-003;1.00000
 199.834;   17.49000;-8.5233e-003;1.00000
 205.313;   18.02000;-2.0137e-002;1.00000
 210.658;   18.55000;-3.3601e-002;1.00000
 215.901;   19.08000;-4.9047e-002;1.00000
 221.066;   19.61000;-6.6447e-002;1.00000
 226.143;   20.14000;-8.5420e-002;1.00000
 231.182;   20.67000;    -0.10573;1.00000
 236.193;   21.20000;    -0.12679;1.00000
 241.17;   21.73000;    -0.14807;1.00000
 246.129;   22.26000;    -0.16919;1.00000
 251.11;   22.79000;    -0.18970;1.00000
 256.057;   23.32000;    -0.20885;1.00000
 261.031;   23.85000;    -0.22707;1.00000
 266.029;   24.38000;    -0.24382;1.00000
 271.046;   24.91000;    -0.25963;1.00000
 276.045;   25.44000;    -0.27435;1.00000
 281.093;   25.97000;    -0.28796;1.00000
 286.137;   26.50000;    -0.30059;1.00000
 291.219;   27.03000;    -0.31198;1.00000
 296.322;   27.56000;    -0.32247;1.00000
 301.441;   28.09000;    -0.33219;1.00000
 306.571;   28.62000;    -0.34084;1.00000
 311.709;   29.15000;    -0.34901;1.00000
 316.897;   29.68000;    -0.35647;1.00000
 322.06;   30.21000;    -0.36342;1.00000
 327.278;   30.74000;    -0.36986;1.00000
 332.478;   31.27000;    -0.37604;1.00000
 337.703;   31.80000;    -0.38161;1.00000
 342.917;   32.33000;    -0.38696;1.00000
 348.136;   32.86000;    -0.39201;1.00000
 353.394;   33.39000;    -0.39673;1.00000
 358.625;   33.92000;    -0.40136;1.00000
 363.879;   34.45000;    -0.40558;1.00000
 369.113;   34.98000;    -0.40947;1.00000
 374.367;   35.51000;    -0.41339;1.00000
 379.616;   36.04000;    -0.41701;1.00000
 384.867;   36.57000;    -0.42062;1.00000
 390.111;   37.10000;    -0.42409;1.00000
 395.367;   37.63000;    -0.42779;1.00000
 400.625;   38.16000;    -0.43116;1.00000
 405.87;   38.69000;    -0.43445;1.00000
 411.134;   39.22000;    -0.43770;1.00000
 416.387;   39.75000;    -0.44077;1.00000
 421.65;   40.28000;    -0.44342;1.00000
 426.906;   40.81000;    -0.44607;1.00000
 432.181;   41.34000;    -0.44864;1.00000
 437.449;   41.87000;    -0.45094;1.00000
 442.709;   42.40000;    -0.45331;1.00000
 447.97;   42.93000;    -0.45546;1.00000
 453.241;   43.46000;    -0.45774;1.00000
 458.497;   43.99000;    -0.45991;1.00000
 463.777;   44.52000;    -0.46207;1.00000
 469.034;   45.05000;    -0.46421;1.00000
 474.309;   45.58000;    -0.46634;1.00000
 479.583;   46.11000;    -0.46844;1.00000
 484.844;   46.64000;    -0.47041;1.00000
 490.133;   47.17000;    -0.47240;1.00000
 495.408;   47.70000;    -0.47404;1.00000
 500.679;   48.23000;    -0.47570;1.00000
 505.978;   48.76000;    -0.47735;1.00000
 511.247;   49.29000;    -0.47887;1.00000
 516.519;   49.82000;    -0.48010;1.00000
 521.796;   50.35000;    -0.48158;1.00000
 527.079;   50.88000;    -0.48289;1.00000
 532.352;   51.41000;    -0.48427;1.00000
 537.644;   51.94000;    -0.48557;1.00000
 542.929;   52.47000;    -0.48665;1.00000
 548.199;   53.00000;    -0.48782;1.00000
 553.491;   53.53000;    -0.48912;1.00000
 558.773;   54.06000;    -0.49051;1.00000
 564.074;   54.59000;    -0.49163;1.00000
 569.364;   55.12000;    -0.49267;1.00000
 574.655;   55.65000;    -0.49373;1.00000
 579.945;   56.18000;    -0.49480;1.00000
 585.242;   56.71000;    -0.49578;1.00000
 590.529;   57.24000;    -0.49670;1.00000
 595.816;   57.77000;    -0.49759;1.00000
 601.116;   58.30000;    -0.49825;1.00000
 606.412;   58.83000;    -0.49899;1.00000
 611.713;   59.36000;    -0.49974;1.00000
 617.003;   59.89000;    -0.50041;1.00000
 622.288;   60.42000;    -0.50111;1.00000
 627.57;   60.95000;    -0.50173;1.00000
 632.872;   61.48000;    -0.50258;1.00000
 638.167;   62.01000;    -0.50341;1.00000
 643.479;   62.54000;    -0.50427;1.00000
 648.772;   63.07000;    -0.50524;1.00000
 654.08;   63.60000;    -0.50635;1.00000
 659.369;   64.13000;    -0.50770;1.00000
 664.673;   64.66000;    -0.50935;1.00000
 669.969;   65.19000;    -0.51138;1.00000
 675.278;   65.72000;    -0.51427;1.00000
 680.584;   66.25000;    -0.51789;1.00000
 685.889;   66.78000;    -0.52287;1.00000
 691.186;   67.31000;    -0.52864;1.00000
 696.483;   67.84000;    -0.53423;1.00000
 701.791;   68.37000;    -0.53866;1.00000
 707.105;   68.90000;    -0.54085;1.00000
 712.403;   69.43000;    -0.54050;1.00000
 717.699;   69.96000;    -0.53819;1.00000
 722.997;   70.49000;    -0.53393;1.00000
 728.286;   71.02000;    -0.52830;1.00000
 733.586;   71.55000;    -0.52210;1.00000
 738.867;   72.08000;    -0.51587;1.00000
 744.17;   72.61000;    -0.51081;1.00000
 749.465;   73.14000;    -0.50743;1.00000
 754.775;   73.67000;    -0.50592;1.00000
 760.082;   74.20000;    -0.50607;1.00000
 765.382;   74.73000;    -0.50710;1.00000
 770.692;   75.26000;    -0.50893;1.00000
 776.007;   75.79000;    -0.51119;1.00000
 781.311;   76.32000;    -0.51402;1.00000
 786.625;   76.85000;    -0.51710;1.00000
 791.928;   77.38000;    -0.52037;1.00000
 797.246;   77.91000;    -0.52387;1.00000
 802.57;   78.44000;    -0.52703;1.00000
 807.882;   78.97000;    -0.53002;1.00000
 813.18;   79.50000;    -0.53272;1.00000
 818.489;   80.03000;    -0.53494;1.00000
 823.793;   80.56000;    -0.53692;1.00000
 829.104;   81.09000;    -0.53851;1.00000
 834.409;   81.62000;    -0.53966;1.00000
 839.719;   82.15000;    -0.54081;1.00000
 845.029;   82.68000;    -0.54155;1.00000
 850.346;   83.21000;    -0.54241;1.00000
 855.653;   83.74000;    -0.54345;1.00000
 860.974;   84.27000;    -0.54466;1.00000
 866.279;   84.80000;    -0.54608;1.00000
 871.588;   85.33000;    -0.54780;1.00000
 876.894;   85.86000;    -0.54939;1.00000
 882.209;   86.39000;    -0.55115;1.00000
 887.511;   86.92000;    -0.55266;1.00000
 892.825;   87.45000;    -0.55431;1.00000
 898.14;   87.98000;    -0.55570;1.00000
 903.456;   88.51000;    -0.55690;1.00000
 908.757;   89.04000;    -0.55850;1.00000
 914.072;   89.57000;    -0.55993;1.00000
 919.386;   90.10000;    -0.56130;1.00000
 924.7;   90.63000;    -0.56248;1.00000
 930.018;   91.16000;    -0.56356;1.00000
 935.334;   91.69000;    -0.56451;1.00000
 940.653;   92.22000;    -0.56554;1.00000
 945.954;   92.75000;    -0.56627;1.00000
 951.276;   93.28000;    -0.56688;1.00000
 956.589;   93.81000;    -0.56751;1.00000
 961.897;   94.34000;    -0.56809;1.00000
 967.209;   94.87000;    -0.56830;1.00000
 972.511;   95.40000;    -0.56830;1.00000
 977.837;   95.93000;    -0.56835;1.00000
 983.137;   96.46000;    -0.56830;1.00000
 988.457;   96.99000;    -0.56784;1.00000
 993.773;   97.52000;    -0.56739;1.00000
 999.09;   98.05000;    -0.56674;1.00000
1004.4;   98.58000;    -0.56573;1.00000
1009.72;   99.11000;    -0.56449;1.00000
1015.04;   99.64000;    -0.56296;1.00000
1020.35;  100.17;    -0.56136;1.00000
1025.66;  100.7;    -0.55933;1.00000
1030.99;  101.23;    -0.55692;1.00000
1036.31;  101.76;    -0.55412;1.00000
1041.62;  102.29;    -0.55105;1.00000
1046.94;  102.82;    -0.54747;1.00000
1052.25;  103.35;    -0.54368;1.00000
1057.57;  103.88;    -0.53984;1.00000
1062.87;  104.41;    -0.53625;1.00000
1068.2;  104.94;    -0.53264;1.00000
1073.51;  105.47;    -0.52852;1.00000
1078.82;  106;    -0.52398;1.00000
1084.14;  106.53;    -0.51875;1.00000
1089.46;  107.06;    -0.51326;1.00000
1094.77;  107.59;    -0.50807;1.00000
1100.09;  108.12;    -0.50281;1.00000
1105.4;  108.65;    -0.49753;1.00000
1110.72;  109.18;    -0.49256;1.00000
1116.02;  109.71;    -0.48745;1.00000
1121.33;  110.24;    -0.48217;1.00000
1126.64;  110.77;    -0.47674;1.00000
1131.95;  111.3;    -0.47133;1.00000
1137.27;  111.83;    -0.46575;1.00000
1142.58;  112.36;    -0.45997;1.00000
1147.88;  112.89;    -0.45420;1.00000
1153.19;  113.42;    -0.44797;1.00000
1158.51;  113.95;    -0.44127;1.00000
1163.82;  114.48;    -0.43429;1.00000
1169.14;  115.01;    -0.42738;1.00000
1174.43;  115.54;    -0.41993;1.00000
1179.74;  116.07;    -0.41222;1.00000
1185.05;  116.6;    -0.40405;1.00000
1190.37;  117.13;    -0.39535;1.00000
1195.68;  117.66;    -0.38660;1.00000
1200.98;  118.19;    -0.37718;1.00000
1206.3;  118.72;    -0.36738;1.00000
1211.6;  119.25;    -0.35764;1.00000
1216.91;  119.78;    -0.34745;1.00000
1222.21;  120.31;    -0.33790;1.00000
1227.55;  120.84;    -0.32959;1.00000
1232.84;  121.37;    -0.32257;1.00000
1238.15;  121.9;    -0.31732;1.00000
1243.45;  122.43;    -0.31286;1.00000
1248.75;  122.96;    -0.30890;1.00000
1254.06;  123.49;    -0.30518;1.00000
1259.35;  124.02;    -0.30177;1.00000
1264.67;  124.55;    -0.29853;1.00000
1269.98;  125.08;    -0.29491;1.00000
1275.28;  125.61;    -0.29148;1.00000
1280.6;  126.14;    -0.28736;1.00000
1285.91;  126.67;    -0.28265;1.00000
1291.21;  127.2;    -0.27771;1.00000
1296.51;  127.73;    -0.27112;1.00000
1299.11;  127.99;    -0.26729;1.00000