File: charts/20230801/DTA/SATURADAS/Cs-STD 5A.txt
#FILE:                       ;DTA-MARIANA-5AS.ngb-dd9
#FORMAT:                     ;NETZSCH5
#IDENTITY:                   ;Mariana
#DECIMAL:                    ;POINT
#SEPARATOR:                  ;SEMICOLON
#MTYPE:                      ;DTA
#INSTRUMENT:                 ;NETZSCH DSC 404F3
#PROJECT:                    ;Mariana
#DATE/TIME:                  ;02/06/2023 09:16:10
#CORR. FILE:                 ;Branco_Mariana_01-06-23.ngb-bd9
#LABORATORY:                 ;DSC/DTA
#OPERATOR:                   ;Pamela
#REMARK:                     ;Mariana
#SAMPLE:                     ;5AS
#SAMPLE MASS /mg:            ;286.9
#MATERIAL:                   ;B2O3
#REFERENCE:                  ;Empty
#REFERENCE MASS /mg:         ;0
#TYPE OF CRUCIBLE:           ;DTA/TG crucible Al2O3
#SAMPLE CRUCIBLE MASS /mg:   ;1351.2
#REFERENCE CRUCIBLE MASS /mg:;1349.29
#CORR. CODE:                 ;020
#EXO:                        ;-1
#RANGE:                      ;20/10.0(K/min)/1300
#SEGMENT:                    ;S1/1

##Temp./øC;Time/min;DTA/(uV/mg);Sensit./(uV/mW)
  17.47500;0.0000e+000;-2.7869e-003;1.00000
  17.49700;    0.53000;-2.1806e-003;1.00000
  17.89800;    1.06000;-1.2286e-003;1.00000
  18.83100;    1.59000; 6.8609e-004;1.00000
  20.25700;    2.12000; 3.4969e-003;1.00000
  22.17900;    2.65000; 6.8742e-003;1.00000
  24.56000;    3.18000; 1.0435e-002;1.00000
  27.54600;    3.71000; 1.4091e-002;1.00000
  31.13900;    4.24000; 1.7995e-002;1.00000
  35.38100;    4.77000; 2.2021e-002;1.00000
  40.24400;    5.30000; 2.6348e-002;1.00000
  45.63300;    5.83000; 3.0733e-002;1.00000
  51.57100;    6.36000; 3.5121e-002;1.00000
  58.03400;    6.89000; 3.9663e-002;1.00000
  64.88100;    7.42000; 4.4380e-002;1.00000
  72.12900;    7.95000; 4.9470e-002;1.00000
  79.60100;    8.48000; 5.4789e-002;1.00000
  87.29400;    9.01000; 6.0721e-002;1.00000
  95.18200;    9.54000; 6.7364e-002;1.00000
 103.141;   10.07000; 7.4871e-002;1.00000
 111.041;   10.60000; 8.3075e-002;1.00000
 118.906;   11.13000; 9.1758e-002;1.00000
 126.662;   11.66000;     0.10035;1.00000
 134.282;   12.19000;     0.10851;1.00000
 141.781;   12.72000;     0.11585;1.00000
 149.074;   13.25000;     0.12204;1.00000
 156.137;   13.78000;     0.12698;1.00000
 163.001;   14.31000;     0.13068;1.00000
 169.63;   14.84000;     0.13328;1.00000
 176.009;   15.37000;     0.13503;1.00000
 182.226;   15.90000;     0.13615;1.00000
 188.239;   16.43000;     0.13675;1.00000
 194.086;   16.96000;     0.13701;1.00000
 199.761;   17.49000;     0.13691;1.00000
 205.28;   18.02000;     0.13640;1.00000
 210.647;   18.55000;     0.13543;1.00000
 215.927;   19.08000;     0.13392;1.00000
 221.091;   19.61000;     0.13169;1.00000
 226.18;   20.14000;     0.12843;1.00000
 231.245;   20.67000;     0.12392;1.00000
 236.251;   21.20000;     0.11788;1.00000
 241.234;   21.73000;     0.11015;1.00000
 246.206;   22.26000;     0.10058;1.00000
 251.184;   22.79000; 8.9125e-002;1.00000
 256.16;   23.32000; 7.6028e-002;1.00000
 261.161;   23.85000; 6.1743e-002;1.00000
 266.169;   24.38000; 4.6681e-002;1.00000
 271.225;   24.91000; 3.1414e-002;1.00000
 276.266;   25.44000; 1.6506e-002;1.00000
 281.337;   25.97000; 2.2843e-003;1.00000
 286.43;   26.50000;-1.0922e-002;1.00000
 291.52;   27.03000;-2.2915e-002;1.00000
 296.648;   27.56000;-3.3727e-002;1.00000
 301.781;   28.09000;-4.3426e-002;1.00000
 306.925;   28.62000;-5.2103e-002;1.00000
 312.074;   29.15000;-5.9703e-002;1.00000
 317.242;   29.68000;-6.6447e-002;1.00000
 322.417;   30.21000;-7.2411e-002;1.00000
 327.586;   30.74000;-7.7759e-002;1.00000
 332.76;   31.27000;-8.2447e-002;1.00000
 337.948;   31.80000;-8.6660e-002;1.00000
 343.151;   32.33000;-9.0412e-002;1.00000
 348.346;   32.86000;-9.3707e-002;1.00000
 353.536;   33.39000;-9.6653e-002;1.00000
 358.761;   33.92000;-9.9219e-002;1.00000
 363.973;   34.45000;    -0.10159;1.00000
 369.2;   34.98000;    -0.10359;1.00000
 374.419;   35.51000;    -0.10540;1.00000
 379.665;   36.04000;    -0.10691;1.00000
 384.901;   36.57000;    -0.10831;1.00000
 390.147;   37.10000;    -0.10957;1.00000
 395.389;   37.63000;    -0.11078;1.00000
 400.638;   38.16000;    -0.11185;1.00000
 405.878;   38.69000;    -0.11287;1.00000
 411.141;   39.22000;    -0.11392;1.00000
 416.373;   39.75000;    -0.11485;1.00000
 421.647;   40.28000;    -0.11571;1.00000
 426.9;   40.81000;    -0.11659;1.00000
 432.175;   41.34000;    -0.11739;1.00000
 437.432;   41.87000;    -0.11811;1.00000
 442.694;   42.40000;    -0.11880;1.00000
 447.953;   42.93000;    -0.11945;1.00000
 453.219;   43.46000;    -0.12003;1.00000
 458.49;   43.99000;    -0.12056;1.00000
 463.769;   44.52000;    -0.12112;1.00000
 469.038;   45.05000;    -0.12155;1.00000
 474.298;   45.58000;    -0.12199;1.00000
 479.57;   46.11000;    -0.12239;1.00000
 484.841;   46.64000;    -0.12275;1.00000
 490.116;   47.17000;    -0.12313;1.00000
 495.387;   47.70000;    -0.12353;1.00000
 500.671;   48.23000;    -0.12389;1.00000
 505.951;   48.76000;    -0.12417;1.00000
 511.22;   49.29000;    -0.12452;1.00000
 516.511;   49.82000;    -0.12484;1.00000
 521.785;   50.35000;    -0.12520;1.00000
 527.067;   50.88000;    -0.12547;1.00000
 532.365;   51.41000;    -0.12577;1.00000
 537.635;   51.94000;    -0.12605;1.00000
 542.925;   52.47000;    -0.12635;1.00000
 548.197;   53.00000;    -0.12660;1.00000
 553.495;   53.53000;    -0.12684;1.00000
 558.805;   54.06000;    -0.12710;1.00000
 564.074;   54.59000;    -0.12732;1.00000
 569.376;   55.12000;    -0.12761;1.00000
 574.651;   55.65000;    -0.12764;1.00000
 579.947;   56.18000;    -0.12787;1.00000
 585.238;   56.71000;    -0.12802;1.00000
 590.537;   57.24000;    -0.12826;1.00000
 595.822;   57.77000;    -0.12846;1.00000
 601.119;   58.30000;    -0.12859;1.00000
 606.411;   58.83000;    -0.12890;1.00000
 611.714;   59.36000;    -0.12908;1.00000
 617;   59.89000;    -0.12918;1.00000
 622.296;   60.42000;    -0.12930;1.00000
 627.593;   60.95000;    -0.12749;1.00000
 632.882;   61.48000;    -0.12766;1.00000
 638.183;   62.01000;    -0.12774;1.00000
 643.483;   62.54000;    -0.12775;1.00000
 648.779;   63.07000;    -0.12769;1.00000
 654.076;   63.60000;    -0.12767;1.00000
 659.389;   64.13000;    -0.12766;1.00000
 664.683;   64.66000;    -0.12768;1.00000
 669.985;   65.19000;    -0.12764;1.00000
 675.279;   65.72000;    -0.12762;1.00000
 680.574;   66.25000;    -0.12746;1.00000
 685.878;   66.78000;    -0.12742;1.00000
 691.168;   67.31000;    -0.12732;1.00000
 696.476;   67.84000;    -0.12723;1.00000
 701.776;   68.37000;    -0.12711;1.00000
 707.078;   68.90000;    -0.12705;1.00000
 712.383;   69.43000;    -0.12688;1.00000
 717.694;   69.96000;    -0.12675;1.00000
 723.001;   70.49000;    -0.12650;1.00000
 728.301;   71.02000;    -0.12624;1.00000
 733.612;   71.55000;    -0.12601;1.00000
 738.905;   72.08000;    -0.12584;1.00000
 744.224;   72.61000;    -0.12552;1.00000
 749.529;   73.14000;    -0.12528;1.00000
 754.818;   73.67000;    -0.12498;1.00000
 760.12;   74.20000;    -0.12484;1.00000
 765.419;   74.73000;    -0.12442;1.00000
 770.734;   75.26000;    -0.12408;1.00000
 776.038;   75.79000;    -0.12372;1.00000
 781.348;   76.32000;    -0.12342;1.00000
 786.653;   76.85000;    -0.12307;1.00000
 791.953;   77.38000;    -0.12262;1.00000
 797.267;   77.91000;    -0.12215;1.00000
 802.572;   78.44000;    -0.12178;1.00000
 807.882;   78.97000;    -0.12151;1.00000
 813.181;   79.50000;    -0.12107;1.00000
 818.49;   80.03000;    -0.12067;1.00000
 823.799;   80.56000;    -0.12028;1.00000
 829.096;   81.09000;    -0.11980;1.00000
 834.409;   81.62000;    -0.11937;1.00000
 839.716;   82.15000;    -0.11901;1.00000
 845.029;   82.68000;    -0.11854;1.00000
 850.347;   83.21000;    -0.11816;1.00000
 855.658;   83.74000;    -0.11788;1.00000
 860.986;   84.27000;    -0.11757;1.00000
 866.273;   84.80000;    -0.11718;1.00000
 871.579;   85.33000;    -0.11685;1.00000
 876.894;   85.86000;    -0.11644;1.00000
 882.19;   86.39000;    -0.11609;1.00000
 887.506;   86.92000;    -0.11573;1.00000
 892.806;   87.45000;    -0.11519;1.00000
 898.115;   87.98000;    -0.11460;1.00000
 903.438;   88.51000;    -0.11390;1.00000
 908.745;   89.04000;    -0.11306;1.00000
 914.06;   89.57000;    -0.11207;1.00000
 919.379;   90.10000;    -0.11093;1.00000
 924.682;   90.63000;    -0.10973;1.00000
 929.998;   91.16000;    -0.10831;1.00000
 935.315;   91.69000;    -0.10681;1.00000
 940.617;   92.22000;    -0.10545;1.00000
 945.92;   92.75000;    -0.10420;1.00000
 951.237;   93.28000;    -0.10309;1.00000
 956.54;   93.81000;    -0.10224;1.00000
 961.855;   94.34000;    -0.10179;1.00000
 967.162;   94.87000;    -0.10153;1.00000
 972.481;   95.40000;    -0.10168;1.00000
 977.796;   95.93000;    -0.10198;1.00000
 983.109;   96.46000;    -0.10247;1.00000
 988.421;   96.99000;    -0.10314;1.00000
 993.737;   97.52000;    -0.10378;1.00000
 999.038;   98.05000;    -0.10421;1.00000
1004.37;   98.58000;    -0.10435;1.00000
1009.69;   99.11000;    -0.10414;1.00000
1015.01;   99.64000;    -0.10360;1.00000
1020.32;  100.17;    -0.10271;1.00000
1025.63;  100.7;    -0.10166;1.00000
1030.95;  101.23;    -0.10068;1.00000
1036.27;  101.76;-9.9416e-002;1.00000
1041.58;  102.29;-9.8560e-002;1.00000
1046.88;  102.82;-9.8956e-002;1.00000
1052.19;  103.35;    -0.10300;1.00000
1057.51;  103.88;    -0.11519;1.00000
1062.85;  104.41;    -0.13844;1.00000
1068.2;  104.94;    -0.16028;1.00000
1073.55;  105.47;    -0.16460;1.00000
1078.85;  106;    -0.15698;1.00000
1084.15;  106.53;    -0.14383;1.00000
1089.42;  107.06;    -0.12980;1.00000
1094.69;  107.59;    -0.11694;1.00000
1099.99;  108.12;    -0.10623;1.00000
1105.29;  108.65;-9.8326e-002;1.00000
1110.59;  109.18;-9.2960e-002;1.00000
1115.92;  109.71;-8.9359e-002;1.00000
1121.24;  110.24;-8.6907e-002;1.00000
1126.57;  110.77;-8.5152e-002;1.00000
1131.9;  111.3;-8.3626e-002;1.00000
1137.21;  111.83;-8.2360e-002;1.00000
1142.52;  112.36;-8.1320e-002;1.00000
1147.84;  112.89;-8.0456e-002;1.00000
1153.16;  113.42;-7.9727e-002;1.00000
1158.47;  113.95;-7.9113e-002;1.00000
1163.79;  114.48;-7.8570e-002;1.00000
1169.11;  115.01;-7.8161e-002;1.00000
1174.43;  115.54;-7.7701e-002;1.00000
1179.74;  116.07;-7.7360e-002;1.00000
1185.06;  116.6;-7.7070e-002;1.00000
1190.36;  117.13;-7.6866e-002;1.00000
1195.68;  117.66;-7.6762e-002;1.00000
1200.99;  118.19;-7.6711e-002;1.00000
1206.29;  118.72;-7.6831e-002;1.00000
1211.62;  119.25;-7.6828e-002;1.00000
1216.93;  119.78;-7.7009e-002;1.00000
1222.23;  120.31;-7.7225e-002;1.00000
1227.54;  120.84;-7.7570e-002;1.00000
1232.85;  121.37;-7.8073e-002;1.00000
1238.16;  121.9;-7.8884e-002;1.00000
1243.47;  122.43;-8.0051e-002;1.00000
1248.81;  122.96;-8.1099e-002;1.00000
1254.14;  123.49;-8.1985e-002;1.00000
1259.43;  124.02;-8.3123e-002;1.00000
1264.74;  124.55;-8.4064e-002;1.00000
1270.05;  125.08;-8.4790e-002;1.00000
1275.36;  125.61;-8.5484e-002;1.00000
1280.65;  126.14;-8.6482e-002;1.00000
1285.96;  126.67;-8.7590e-002;1.00000
1291.26;  127.2;-8.8702e-002;1.00000
1296.57;  127.73;-8.9853e-002;1.00000
1299.27;  128;-9.0462e-002;1.00000