File: charts/20230801/DTA/SATURADAS/Cs-ZCFA.txt
#FILE:                       ;Dta_Danilo_ZeoACs 1.ngb-dd9
#FORMAT:                     ;NETZSCH5
#IDENTITY:                   ;Danilo
#DECIMAL:                    ;POINT
#SEPARATOR:                  ;SEMICOLON
#MTYPE:                      ;DTA
#INSTRUMENT:                 ;NETZSCH DSC 404F3
#PROJECT:                    ;Danilo
#DATE/TIME:                  ;17/05/2022 17:07:11
#CORR. FILE:                 ;DTA Danilo Branco 04-07-22.ngb-bd9
#LABORATORY:                 ;DSC/DTA
#OPERATOR:                   ;Eguiberto
#REMARK:                     ;Danilo
#SAMPLE:                     ;ZeoACs 1
#SAMPLE MASS /mg:            ;145.9
#MATERIAL:                   ;Vidro + Zeolita
#REFERENCE:                  ;Empty
#REFERENCE MASS /mg:         ;0
#TYPE OF CRUCIBLE:           ;DTA/TG crucible Al2O3
#SAMPLE CRUCIBLE MASS /mg:   ;1352.0
#REFERENCE CRUCIBLE MASS /mg:;1342.9
#CORR. CODE:                 ;020
#EXO:                        ;-1
#RANGE:                      ;20/10.0(K/min)/1300
#SEGMENT:                    ;S1/1

##Temp./øC;Time/min;DTA/(uV/mg);Sensit./(uV/mW)
  21.98200;0.0000e+000; 4.5233e-003;1.00000
  22.06000;    0.53000; 3.9585e-003;1.00000
  22.45000;    1.06000; 3.9480e-003;1.00000
  23.28700;    1.59000; 5.0305e-003;1.00000
  24.56500;    2.12000; 7.1326e-003;1.00000
  26.25600;    2.65000; 9.7472e-003;1.00000
  28.42400;    3.18000; 1.2226e-002;1.00000
  31.14500;    3.71000; 1.4354e-002;1.00000
  34.49100;    4.24000; 1.6211e-002;1.00000
  38.44500;    4.77000; 1.8030e-002;1.00000
  42.97100;    5.30000; 2.0044e-002;1.00000
  48.11500;    5.83000; 2.1978e-002;1.00000
  53.78000;    6.36000; 2.4347e-002;1.00000
  59.92400;    6.89000; 2.6977e-002;1.00000
  66.52400;    7.42000; 3.0408e-002;1.00000
  73.48900;    7.95000; 3.5266e-002;1.00000
  80.70200;    8.48000; 4.1536e-002;1.00000
  88.19300;    9.01000; 4.8809e-002;1.00000
  95.84500;    9.54000; 5.6580e-002;1.00000
 103.581;   10.07000; 6.4136e-002;1.00000
 111.33;   10.60000; 7.0448e-002;1.00000
 119.02;   11.13000; 7.5154e-002;1.00000
 126.648;   11.66000; 7.9123e-002;1.00000
 134.164;   12.19000; 8.1220e-002;1.00000
 141.595;   12.72000; 8.1602e-002;1.00000
 148.83;   13.25000; 8.1785e-002;1.00000
 155.893;   13.78000; 8.0927e-002;1.00000
 162.722;   14.31000; 7.9588e-002;1.00000
 169.334;   14.84000; 7.8140e-002;1.00000
 175.751;   15.37000; 7.7779e-002;1.00000
 181.962;   15.90000; 7.6095e-002;1.00000
 187.984;   16.43000; 7.5306e-002;1.00000
 193.83;   16.96000; 7.2226e-002;1.00000
 199.517;   17.49000; 6.6165e-002;1.00000
 205.05;   18.02000; 5.7030e-002;1.00000
 210.463;   18.55000; 4.4809e-002;1.00000
 215.756;   19.08000; 2.9916e-002;1.00000
 220.954;   19.61000; 1.2304e-002;1.00000
 226.089;   20.14000;-7.5144e-003;1.00000
 231.173;   20.67000;-2.8557e-002;1.00000
 236.218;   21.20000;-4.9751e-002;1.00000
 241.217;   21.73000;-7.0118e-002;1.00000
 246.21;   22.26000;-8.9283e-002;1.00000
 251.194;   22.79000;    -0.10567;1.00000
 256.171;   23.32000;    -0.12026;1.00000
 261.145;   23.85000;    -0.13344;1.00000
 266.136;   24.38000;    -0.14536;1.00000
 271.141;   24.91000;    -0.15625;1.00000
 276.167;   25.44000;    -0.16631;1.00000
 281.182;   25.97000;    -0.17571;1.00000
 286.215;   26.50000;    -0.18452;1.00000
 291.278;   27.03000;    -0.19282;1.00000
 296.374;   27.56000;    -0.20052;1.00000
 301.492;   28.09000;    -0.20783;1.00000
 306.608;   28.62000;    -0.21476;1.00000
 311.74;   29.15000;    -0.22138;1.00000
 316.918;   29.68000;    -0.22765;1.00000
 322.094;   30.21000;    -0.23369;1.00000
 327.285;   30.74000;    -0.23935;1.00000
 332.498;   31.27000;    -0.24478;1.00000
 337.71;   31.80000;    -0.25008;1.00000
 342.931;   32.33000;    -0.25524;1.00000
 348.155;   32.86000;    -0.26030;1.00000
 353.385;   33.39000;    -0.26526;1.00000
 358.622;   33.92000;    -0.27016;1.00000
 363.862;   34.45000;    -0.27503;1.00000
 369.11;   34.98000;    -0.27967;1.00000
 374.379;   35.51000;    -0.28437;1.00000
 379.622;   36.04000;    -0.28893;1.00000
 384.866;   36.57000;    -0.29333;1.00000
 390.121;   37.10000;    -0.29766;1.00000
 395.389;   37.63000;    -0.30174;1.00000
 400.646;   38.16000;    -0.30584;1.00000
 405.906;   38.69000;    -0.30990;1.00000
 411.179;   39.22000;    -0.31382;1.00000
 416.427;   39.75000;    -0.31768;1.00000
 421.692;   40.28000;    -0.32138;1.00000
 426.96;   40.81000;    -0.32506;1.00000
 432.215;   41.34000;    -0.32877;1.00000
 437.49;   41.87000;    -0.33234;1.00000
 442.75;   42.40000;    -0.33588;1.00000
 448.011;   42.93000;    -0.33924;1.00000
 453.285;   43.46000;    -0.34241;1.00000
 458.539;   43.99000;    -0.34558;1.00000
 463.806;   44.52000;    -0.34864;1.00000
 469.072;   45.05000;    -0.35164;1.00000
 474.338;   45.58000;    -0.35445;1.00000
 479.607;   46.11000;    -0.35734;1.00000
 484.874;   46.64000;    -0.35993;1.00000
 490.16;   47.17000;    -0.36215;1.00000
 495.436;   47.70000;    -0.36427;1.00000
 500.708;   48.23000;    -0.36629;1.00000
 505.978;   48.76000;    -0.36822;1.00000
 511.261;   49.29000;    -0.36999;1.00000
 516.544;   49.82000;    -0.37178;1.00000
 521.815;   50.35000;    -0.37345;1.00000
 527.084;   50.88000;    -0.37507;1.00000
 532.375;   51.41000;    -0.37673;1.00000
 537.655;   51.94000;    -0.37838;1.00000
 542.945;   52.47000;    -0.38002;1.00000
 548.23;   53.00000;    -0.38156;1.00000
 553.518;   53.53000;    -0.38312;1.00000
 558.807;   54.06000;    -0.38459;1.00000
 564.091;   54.59000;    -0.38601;1.00000
 569.371;   55.12000;    -0.38740;1.00000
 574.657;   55.65000;    -0.38878;1.00000
 579.959;   56.18000;    -0.39018;1.00000
 585.253;   56.71000;    -0.39178;1.00000
 590.556;   57.24000;    -0.39299;1.00000
 595.838;   57.77000;    -0.39431;1.00000
 601.134;   58.30000;    -0.39565;1.00000
 606.431;   58.83000;    -0.39708;1.00000
 611.715;   59.36000;    -0.39832;1.00000
 616.999;   59.89000;    -0.39967;1.00000
 622.285;   60.42000;    -0.40104;1.00000
 627.575;   60.95000;    -0.40250;1.00000
 632.88;   61.48000;    -0.40390;1.00000
 638.159;   62.01000;    -0.40529;1.00000
 643.456;   62.54000;    -0.40698;1.00000
 648.75;   63.07000;    -0.40852;1.00000
 654.056;   63.60000;    -0.41013;1.00000
 659.363;   64.13000;    -0.41191;1.00000
 664.663;   64.66000;    -0.41359;1.00000
 669.967;   65.19000;    -0.41510;1.00000
 675.27;   65.72000;    -0.41662;1.00000
 680.572;   66.25000;    -0.41840;1.00000
 685.89;   66.78000;    -0.41994;1.00000
 691.189;   67.31000;    -0.42114;1.00000
 696.491;   67.84000;    -0.42243;1.00000
 701.781;   68.37000;    -0.42360;1.00000
 707.091;   68.90000;    -0.42494;1.00000
 712.392;   69.43000;    -0.42620;1.00000
 717.686;   69.96000;    -0.42822;1.00000
 722.981;   70.49000;    -0.43170;1.00000
 728.286;   71.02000;    -0.43643;1.00000
 733.596;   71.55000;    -0.44080;1.00000
 738.906;   72.08000;    -0.44448;1.00000
 744.219;   72.61000;    -0.44822;1.00000
 749.529;   73.14000;    -0.45187;1.00000
 754.827;   73.67000;    -0.45522;1.00000
 760.134;   74.20000;    -0.45862;1.00000
 765.427;   74.73000;    -0.46207;1.00000
 770.732;   75.26000;    -0.46557;1.00000
 776.037;   75.79000;    -0.46902;1.00000
 781.344;   76.32000;    -0.47248;1.00000
 786.656;   76.85000;    -0.47577;1.00000
 791.953;   77.38000;    -0.47913;1.00000
 797.258;   77.91000;    -0.48216;1.00000
 802.586;   78.44000;    -0.48487;1.00000
 807.88;   78.97000;    -0.48745;1.00000
 813.188;   79.50000;    -0.48975;1.00000
 818.496;   80.03000;    -0.49176;1.00000
 823.799;   80.56000;    -0.49340;1.00000
 829.107;   81.09000;    -0.49466;1.00000
 834.408;   81.62000;    -0.49576;1.00000
 839.717;   82.15000;    -0.49628;1.00000
 845.021;   82.68000;    -0.49655;1.00000
 850.328;   83.21000;    -0.49644;1.00000
 855.644;   83.74000;    -0.49599;1.00000
 860.944;   84.27000;    -0.49542;1.00000
 866.252;   84.80000;    -0.49451;1.00000
 871.565;   85.33000;    -0.49324;1.00000
 876.866;   85.86000;    -0.49161;1.00000
 882.183;   86.39000;    -0.48949;1.00000
 887.481;   86.92000;    -0.48703;1.00000
 892.8;   87.45000;    -0.48427;1.00000
 898.116;   87.98000;    -0.48143;1.00000
 903.408;   88.51000;    -0.47836;1.00000
 908.727;   89.04000;    -0.47539;1.00000
 914.035;   89.57000;    -0.47264;1.00000
 919.34;   90.10000;    -0.47042;1.00000
 924.66;   90.63000;    -0.46885;1.00000
 929.986;   91.16000;    -0.46826;1.00000
 935.3;   91.69000;    -0.46879;1.00000
 940.62;   92.22000;    -0.47067;1.00000
 945.921;   92.75000;    -0.47451;1.00000
 951.246;   93.28000;    -0.47964;1.00000
 956.546;   93.81000;    -0.48375;1.00000
 961.88;   94.34000;    -0.48410;1.00000
 967.196;   94.87000;    -0.48096;1.00000
 972.508;   95.40000;    -0.47621;1.00000
 977.807;   95.93000;    -0.47163;1.00000
 983.115;   96.46000;    -0.46785;1.00000
 988.422;   96.99000;    -0.46492;1.00000
 993.737;   97.52000;    -0.46298;1.00000
 999.049;   98.05000;    -0.46163;1.00000
1004.35;   98.58000;    -0.46048;1.00000
1009.68;   99.11000;    -0.45997;1.00000
1014.99;   99.64000;    -0.45943;1.00000
1020.3;  100.17;    -0.45900;1.00000
1025.64;  100.7;    -0.45852;1.00000
1030.96;  101.23;    -0.45782;1.00000
1036.27;  101.76;    -0.45695;1.00000
1041.58;  102.29;    -0.45587;1.00000
1046.9;  102.82;    -0.45464;1.00000
1052.24;  103.35;    -0.45324;1.00000
1057.55;  103.88;    -0.45126;1.00000
1062.86;  104.41;    -0.44920;1.00000
1068.19;  104.94;    -0.44673;1.00000
1073.5;  105.47;    -0.44416;1.00000
1078.8;  106;    -0.44134;1.00000
1084.13;  106.53;    -0.43819;1.00000
1089.44;  107.06;    -0.43496;1.00000
1094.75;  107.59;    -0.43105;1.00000
1100.07;  108.12;    -0.42740;1.00000
1105.39;  108.65;    -0.42356;1.00000
1110.7;  109.18;    -0.41951;1.00000
1116.02;  109.71;    -0.41503;1.00000
1121.31;  110.24;    -0.41067;1.00000
1126.63;  110.77;    -0.40635;1.00000
1131.94;  111.3;    -0.40162;1.00000
1137.25;  111.83;    -0.39699;1.00000
1142.56;  112.36;    -0.39213;1.00000
1147.87;  112.89;    -0.38734;1.00000
1153.18;  113.42;    -0.38260;1.00000
1158.5;  113.95;    -0.37840;1.00000
1163.81;  114.48;    -0.37515;1.00000
1169.12;  115.01;    -0.37257;1.00000
1174.43;  115.54;    -0.37033;1.00000
1179.74;  116.07;    -0.36747;1.00000
1185.06;  116.6;    -0.36385;1.00000
1190.36;  117.13;    -0.35984;1.00000
1195.67;  117.66;    -0.35619;1.00000
1200.98;  118.19;    -0.35239;1.00000
1206.28;  118.72;    -0.34862;1.00000
1211.58;  119.25;    -0.34478;1.00000
1216.9;  119.78;    -0.33993;1.00000
1222.21;  120.31;    -0.33435;1.00000
1227.52;  120.84;    -0.32779;1.00000
1232.83;  121.37;    -0.32002;1.00000
1238.13;  121.9;    -0.31170;1.00000
1243.43;  122.43;    -0.30268;1.00000
1248.73;  122.96;    -0.29243;1.00000
1254.04;  123.49;    -0.28216;1.00000
1259.35;  124.02;    -0.27141;1.00000
1264.65;  124.55;    -0.25991;1.00000
1269.95;  125.08;    -0.24851;1.00000
1275.25;  125.61;    -0.23728;1.00000
1280.57;  126.14;    -0.22592;1.00000
1285.88;  126.67;    -0.21478;1.00000
1291.21;  127.2;    -0.20316;1.00000
1296.5;  127.73;    -0.19154;1.00000
1299.2;  128;    -0.18542;1.00000