File: charts/20230801/TGA/SATURADAS/Cs-STD 4A.txt
06/07/2023 14:43:51
User name: Gabs
Comments: Programa 3
Number	time(s)	mass(g)	Relative_mass(%)	Sample_T(C)	PV(C)	SV(C)
1.0	0.0	0.1509	100.0	30.0	65.0	65.0
18.0	32.0	0.1503	99.60239	34.0	78.0	68.0
36.0	68.0	0.1502	99.53612	37.5	84.0	71.0
65.0	126.0	0.1501	99.46985	41.0	85.0	75.0
122.0	240.0	0.1497	99.20477	44.5	86.0	85.0
155.0	306.0	0.1496	99.1385	48.0	91.0	90.0
184.0	364.0	0.1494	99.00596	51.5	98.0	95.0
216.0	428.0	0.1489	98.67462	55.0	103.0	101.0
246.0	488.0	0.1489	98.67462	58.5	106.0	106.0
272.0	540.0	0.1487	98.54208	62.0	111.0	110.0
299.0	594.0	0.1484	98.34327	65.5	115.0	114.0
328.0	652.0	0.1482	98.21074	69.0	119.0	119.0
355.0	706.0	0.1474	97.68058	72.5	124.0	124.0
379.0	754.0	0.1478	97.94566	76.0	128.0	128.0
405.0	806.0	0.1471	97.48178	79.5	132.0	132.0
431.0	858.0	0.1472	97.54805	83.0	137.0	136.0
456.0	908.0	0.147	97.41551	86.5	141.0	140.0
482.0	960.0	0.1468	97.28297	90.0	145.0	145.0
508.0	1012.0	0.1464	97.01789	93.75	150.0	149.0
533.0	1062.0	0.1456	96.48774	97.25	153.0	153.0
559.0	1114.0	0.1459	96.68655	100.75	157.0	157.0
588.0	1172.0	0.1447	95.89132	104.75	162.0	162.0
613.0	1222.0	0.1455	96.42147	108.5	167.0	166.0
637.0	1270.0	0.1453	96.28893	112.0	171.0	170.0
662.0	1320.0	0.1441	95.4937	115.5	175.0	175.0
689.0	1374.0	0.1447	95.89132	119.0	179.0	179.0
712.0	1420.0	0.1442	95.55997	122.5	183.0	183.0
736.0	1468.0	0.143	94.76474	126.0	188.0	187.0
760.0	1516.0	0.1438	95.2949	129.5	191.0	191.0
786.0	1568.0	0.1435	95.09609	133.0	195.0	195.0
807.0	1610.0	0.1433	94.96355	136.75	200.0	199.0
834.0	1664.0	0.1427	94.56594	140.25	203.0	203.0
860.0	1716.0	0.1421	94.16832	143.75	207.0	207.0
881.0	1758.0	0.1422	94.23459	147.25	211.0	211.0
907.0	1810.0	0.1418	93.96952	150.75	215.0	215.0
928.0	1852.0	0.1415	93.77071	154.25	219.0	219.0
955.0	1906.0	0.1409	93.37309	157.75	223.0	223.0
978.0	1952.0	0.1406	93.17429	161.25	227.0	227.0
1005.0	2006.0	0.1402	92.90921	164.75	232.0	232.0
1027.0	2050.0	0.1398	92.64414	168.25	235.0	235.0
1052.0	2100.0	0.1393	92.31279	171.75	239.0	239.0
1074.0	2144.0	0.1388	91.98144	175.25	243.0	243.0
1099.0	2194.0	0.1382	91.58383	178.75	247.0	247.0
1121.0	2238.0	0.1377	91.25249	182.25	251.0	251.0
1145.0	2286.0	0.1374	91.05368	185.75	254.0	255.0
1168.0	2332.0	0.1367	90.58979	189.5	258.0	259.0
1192.0	2380.0	0.1364	90.39099	193.0	263.0	263.0
1213.0	2422.0	0.1355	89.79457	196.5	266.0	266.0
1235.0	2466.0	0.1348	89.33068	200.0	270.0	270.0
1265.0	2526.0	0.1341	88.8668	204.0	274.0	275.0
1284.0	2564.0	0.1335	88.46918	207.75	278.0	278.0
1306.0	2608.0	0.1328	88.0053	211.5	283.0	281.0
1329.0	2654.0	0.1322	87.60769	215.0	286.0	285.0
1351.0	2698.0	0.1319	87.40888	219.0	289.0	289.0
1368.0	2732.0	0.131	86.81246	222.5	291.0	292.0
1393.0	2782.0	0.1303	86.34858	226.0	296.0	296.0
1415.0	2826.0	0.1296	85.88469	229.5	300.0	300.0
1435.0	2866.0	0.1291	85.55335	233.0	304.0	303.0
1460.0	2916.0	0.1284	85.08946	236.75	307.0	307.0
1481.0	2958.0	0.128	84.82439	240.25	310.0	311.0
1502.0	3000.0	0.1275	84.49304	244.0	314.0	314.0
1527.0	3050.0	0.1272	84.29423	248.0	318.0	318.0
1546.0	3088.0	0.127	84.1617	251.5	321.0	321.0
1565.0	3126.0	0.1268	84.02916	255.25	324.0	324.0
1588.0	3172.0	0.1263	83.69781	259.0	329.0	328.0
1611.0	3218.0	0.1259	83.43274	262.5	332.0	332.0
1631.0	3258.0	0.1257	83.3002	266.0	336.0	335.0
1650.0	3296.0	0.1254	83.10139	269.5	339.0	339.0
1669.0	3334.0	0.1252	82.96885	273.0	343.0	342.0
1694.0	3384.0	0.1251	82.90258	276.5	346.0	346.0
1714.0	3424.0	0.1249	82.77005	280.0	349.0	349.0
1733.0	3462.0	0.1248	82.70378	283.5	352.0	352.0
1753.0	3502.0	0.1246	82.57124	287.0	356.0	356.0
1779.0	3554.0	0.1245	82.50497	290.5	359.0	360.0
1800.0	3596.0	0.1243	82.37243	294.5	363.0	363.0
1819.0	3634.0	0.1243	82.37243	298.0	366.0	367.0
1836.0	3668.0	0.1243	82.37243	301.75	370.0	369.0
1855.0	3706.0	0.124	82.17362	305.25	373.0	373.0
1875.0	3746.0	0.124	82.17362	308.75	377.0	376.0
1900.0	3796.0	0.1237	81.97482	312.25	380.0	380.0
1922.0	3840.0	0.1237	81.97482	316.0	384.0	384.0
1941.0	3878.0	0.1237	81.97482	319.75	387.0	387.0
1962.0	3920.0	0.1235	81.84228	323.75	390.0	390.0
1983.0	3962.0	0.1234	81.77601	327.5	394.0	394.0
2003.0	4002.0	0.1234	81.77601	331.25	398.0	397.0
2025.0	4046.0	0.1232	81.64347	334.75	401.0	401.0
2048.0	4092.0	0.1231	81.5772	338.25	404.0	405.0
2068.0	4132.0	0.1231	81.5772	342.0	407.0	408.0
2090.0	4176.0	0.123	81.51093	345.5	411.0	412.0
2108.0	4212.0	0.123	81.51093	349.0	414.0	415.0
2127.0	4250.0	0.1228	81.3784	352.5	418.0	418.0
2146.0	4288.0	0.1229	81.44467	356.0	421.0	421.0
2170.0	4336.0	0.1228	81.3784	359.5	425.0	425.0
2189.0	4374.0	0.1225	81.17959	363.25	428.0	428.0
2210.0	4416.0	0.1227	81.31213	367.0	432.0	432.0
2231.0	4458.0	0.1226	81.24586	370.75	435.0	435.0
2250.0	4496.0	0.1226	81.24586	374.5	438.0	438.0
2269.0	4534.0	0.1225	81.17959	378.0	441.0	441.0
2288.0	4572.0	0.1224	81.11332	381.5	444.0	444.0
2308.0	4612.0	0.1225	81.17959	385.25	448.0	448.0
2329.0	4654.0	0.1224	81.11332	389.25	451.0	451.0
2348.0	4692.0	0.1222	80.98078	392.75	454.0	454.0
2367.0	4730.0	0.1222	80.98078	396.25	457.0	458.0
2387.0	4770.0	0.1222	80.98078	399.75	461.0	461.0
2411.0	4818.0	0.122	80.84824	403.75	465.0	465.0
2430.0	4856.0	0.1221	80.91451	407.25	468.0	468.0
2450.0	4896.0	0.1221	80.91451	411.0	471.0	471.0
2469.0	4934.0	0.1221	80.91451	414.5	475.0	475.0
2489.0	4974.0	0.1219	80.78197	418.0	478.0	478.0
2511.0	5018.0	0.1219	80.78197	422.0	481.0	482.0
2530.0	5056.0	0.1218	80.71571	425.5	485.0	485.0
2551.0	5098.0	0.1219	80.78197	429.25	488.0	488.0
2572.0	5140.0	0.1218	80.71571	432.75	491.0	492.0
2592.0	5180.0	0.1219	80.78197	436.5	494.0	495.0
2613.0	5222.0	0.1217	80.64944	440.5	498.0	498.0
2630.0	5256.0	0.1218	80.71571	444.0	501.0	501.0
2651.0	5298.0	0.1217	80.64944	447.75	505.0	505.0
2671.0	5338.0	0.1216	80.58317	451.25	508.0	508.0
2691.0	5378.0	0.1216	80.58317	455.0	511.0	511.0
2711.0	5418.0	0.1214	80.45063	458.5	514.0	515.0
2732.0	5460.0	0.1213	80.38436	462.0	518.0	518.0
2751.0	5498.0	0.1214	80.45063	465.75	521.0	521.0
2771.0	5538.0	0.1215	80.5169	469.5	524.0	525.0
2788.0	5572.0	0.1214	80.45063	473.0	528.0	528.0
2809.0	5614.0	0.1213	80.38436	476.5	531.0	531.0
2828.0	5652.0	0.1214	80.45063	480.0	534.0	534.0
2849.0	5694.0	0.1211	80.25182	483.75	537.0	538.0
2868.0	5732.0	0.1213	80.38436	487.25	541.0	541.0
2889.0	5774.0	0.1212	80.31809	491.0	544.0	544.0
2910.0	5816.0	0.1212	80.31809	494.75	548.0	548.0
2928.0	5852.0	0.1213	80.38436	498.25	551.0	551.0
2950.0	5896.0	0.1212	80.31809	502.25	554.0	554.0
2971.0	5938.0	0.121	80.18555	506.0	558.0	558.0
2993.0	5982.0	0.1212	80.31809	509.5	561.0	562.0
3011.0	6018.0	0.121	80.18555	513.0	564.0	565.0
3030.0	6056.0	0.1209	80.11928	516.5	568.0	568.0
3052.0	6100.0	0.1209	80.11928	520.25	571.0	571.0
3072.0	6140.0	0.121	80.18555	523.75	574.0	575.0
3092.0	6180.0	0.1209	80.11928	527.25	577.0	578.0
3113.0	6222.0	0.1208	80.05302	531.25	582.0	581.0
3135.0	6266.0	0.1209	80.11928	535.0	585.0	585.0
3156.0	6308.0	0.1209	80.11928	538.5	588.0	589.0
3174.0	6344.0	0.121	80.18555	542.0	591.0	592.0
3194.0	6384.0	0.1207	79.98675	545.5	595.0	595.0
3214.0	6424.0	0.1208	80.05302	549.0	598.0	598.0
3230.0	6456.0	0.1207	79.98675	553.0	601.0	601.0
3249.0	6494.0	0.1207	79.98675	556.5	604.0	604.0
3274.0	6544.0	0.1207	79.98675	560.0	608.0	608.0
3294.0	6584.0	0.1206	79.92048	564.0	611.0	612.0
3315.0	6626.0	0.1205	79.85421	567.75	615.0	615.0
3335.0	6666.0	0.1206	79.92048	571.25	618.0	618.0
3355.0	6706.0	0.1205	79.85421	574.75	621.0	622.0
3375.0	6746.0	0.1205	79.85421	578.25	625.0	625.0
3396.0	6788.0	0.1204	79.78794	582.0	628.0	628.0
3418.0	6832.0	0.1205	79.85421	585.5	632.0	632.0
3442.0	6880.0	0.1204	79.78794	589.25	636.0	636.0
3462.0	6920.0	0.1204	79.78794	592.75	639.0	639.0
3481.0	6958.0	0.1203	79.72167	596.25	642.0	643.0
3498.0	6992.0	0.1203	79.72167	600.25	645.0	645.0
3520.0	7036.0	0.1203	79.72167	603.75	649.0	649.0
3540.0	7076.0	0.1203	79.72167	607.25	652.0	652.0
3561.0	7118.0	0.1203	79.72167	610.75	656.0	656.0
3582.0	7160.0	0.1202	79.6554	614.25	659.0	659.0
3605.0	7206.0	0.1201	79.58913	618.0	663.0	663.0
3627.0	7250.0	0.1201	79.58913	621.5	666.0	667.0
3646.0	7288.0	0.1201	79.58913	625.0	670.0	670.0
3665.0	7326.0	0.12	79.52286	628.75	673.0	673.0
3684.0	7364.0	0.12	79.52286	632.25	676.0	676.0
3705.0	7406.0	0.12	79.52286	635.75	679.0	680.0
3727.0	7450.0	0.12	79.52286	639.25	683.0	683.0
3747.0	7490.0	0.1199	79.45659	642.75	687.0	687.0
3771.0	7538.0	0.1199	79.45659	646.5	690.0	691.0
3792.0	7580.0	0.1199	79.45659	650.25	693.0	694.0
3808.0	7612.0	0.1199	79.45659	654.25	696.0	697.0
3834.0	7664.0	0.1199	79.45659	658.0	700.0	701.0
3862.0	7720.0	0.1199	79.45659	662.0	705.0	706.0
3883.0	7762.0	0.1198	79.39032	665.5	709.0	709.0
3902.0	7800.0	0.1198	79.39032	669.0	712.0	712.0
3921.0	7838.0	0.1198	79.39032	673.0	715.0	716.0
3943.0	7882.0	0.1197	79.32406	676.5	719.0	719.0
3968.0	7932.0	0.1196	79.25779	680.5	723.0	723.0
3990.0	7976.0	0.1197	79.32406	684.0	727.0	727.0
4011.0	8018.0	0.1197	79.32406	687.75	729.0	731.0
4028.0	8052.0	0.1196	79.25779	691.5	733.0	733.0
4054.0	8104.0	0.1195	79.19152	695.0	737.0	738.0
4077.0	8150.0	0.1194	79.12525	699.0	741.0	741.0
4101.0	8198.0	0.1194	79.12525	702.5	743.0	745.0
4118.0	8232.0	0.1193	79.05898	706.0	747.0	748.0
4138.0	8272.0	0.1193	79.05898	709.5	751.0	752.0
4161.0	8318.0	0.1193	79.05898	713.0	754.0	755.0
4186.0	8368.0	0.1192	78.99271	716.5	758.0	760.0
4207.0	8410.0	0.1192	78.99271	720.0	761.0	763.0
4228.0	8452.0	0.1192	78.99271	723.75	765.0	767.0
4251.0	8498.0	0.1192	78.99271	727.25	769.0	770.0
4276.0	8548.0	0.1191	78.92644	730.75	772.0	775.0
4301.0	8598.0	0.1191	78.92644	734.25	775.0	779.0
4332.0	8660.0	0.119	78.86017	737.75	779.0	784.0
4362.0	8720.0	0.119	78.86017	741.25	783.0	789.0
4395.0	8786.0	0.1189	78.7939	744.75	787.0	794.0
4425.0	8846.0	0.1189	78.7939	748.25	790.0	799.0
4459.0	8914.0	0.1189	78.7939	751.75	794.0	805.0
4506.0	9008.0	0.1188	78.72763	755.25	796.0	813.0
4560.0	9116.0	0.1188	78.72763	758.75	802.0	822.0
4623.0	9242.0	0.1187	78.66137	762.25	805.0	832.0
4704.0	9404.0	0.1186	78.5951	765.75	810.0	846.0
4818.0	9632.0	0.1186	78.5951	769.25	813.0	865.0
5132.0	10260.0	0.1185	78.52883	772.75	817.0	879.0
6034.0	12064.0	0.1185	78.52883	776.25	820.0	882.0
7706.0	15408.013	0.1188	78.72763	778.0	824.0	885.0