File: charts/20230801/TGA/SATURADAS/Cs-STD 5A.txt
05/07/2023 14:07:08
User name: Gabs
Comments: programa 3
Number	time(s)	mass(g)	Relative_mass(%)	Sample_T(C)	PV(C)	SV(C)
1.0	0.0	0.1574	99.93651	22.0	59.0	57.0
17.0	30.001	0.1566	99.42857	28.0	79.0	60.0
32.0	60.001	0.1566	99.42857	33.25	88.0	62.0
48.0	92.001	0.1566	99.42857	37.0	91.0	65.0
73.0	142.001	0.1565	99.36508	40.75	89.0	69.0
171.0	338.001	0.1559	98.98413	44.5	86.0	86.0
218.0	432.001	0.1555	98.73016	48.25	93.0	93.0
258.0	512.001	0.1553	98.60317	52.0	99.0	100.0
286.0	568.001	0.155	98.4127	56.0	106.0	105.0
318.0	632.001	0.1549	98.34921	60.0	111.0	110.0
350.0	696.001	0.1549	98.34921	63.75	115.0	116.0
376.0	748.001	0.1542	97.90476	67.5	119.0	120.0
404.0	804.001	0.1539	97.71429	71.25	124.0	125.0
431.0	858.001	0.1538	97.65079	75.0	129.0	129.0
460.0	916.001	0.1535	97.46032	78.75	133.0	134.0
487.0	970.001	0.1531	97.20635	82.5	138.0	138.0
514.0	1024.001	0.1529	97.07937	86.25	142.0	143.0
544.0	1084.001	0.1527	96.95238	90.25	147.0	148.0
570.0	1136.001	0.1523	96.69841	94.0	152.0	152.0
597.0	1190.001	0.1521	96.57143	98.0	157.0	157.0
622.0	1240.001	0.1518	96.38095	101.75	162.0	161.0
649.0	1294.001	0.1515	96.19048	105.5	167.0	166.0
676.0	1348.001	0.1513	96.06349	109.25	171.0	170.0
704.0	1404.001	0.1511	95.93651	113.25	174.0	175.0
732.0	1460.001	0.1507	95.68254	117.25	179.0	179.0
762.0	1520.001	0.1504	95.49206	121.25	184.0	185.0
788.0	1572.001	0.1502	95.36508	125.0	189.0	189.0
811.0	1618.001	0.1498	95.11111	129.0	194.0	193.0
840.0	1676.001	0.1496	94.98413	133.0	199.0	198.0
868.0	1732.001	0.1492	94.73016	136.75	202.0	202.0
895.0	1786.001	0.1489	94.53968	140.5	206.0	207.0
917.0	1830.001	0.1486	94.34921	144.25	211.0	210.0
943.0	1885.981	0.1481	94.03175	148.0	215.0	215.0
967.0	1933.981	0.1479	93.90476	151.75	219.0	219.0
994.0	1987.981	0.1475	93.65079	155.75	224.0	224.0
1017.0	2033.981	0.1471	93.39683	159.5	229.0	228.0
1045.0	2089.981	0.1465	93.01587	163.25	232.0	232.0
1069.0	2137.981	0.1461	92.7619	167.0	237.0	236.0
1096.0	2191.981	0.1456	92.44444	170.75	241.0	241.0
1118.0	2235.981	0.1452	92.19048	174.5	245.0	244.0
1144.0	2287.981	0.1444	91.68254	178.25	249.0	249.0
1167.0	2333.981	0.1438	91.30159	182.25	254.0	253.0
1193.0	2385.981	0.1433	90.98413	186.0	257.0	257.0
1216.0	2431.981	0.1428	90.66667	189.75	261.0	261.0
1242.0	2483.981	0.142	90.15873	193.5	265.0	265.0
1263.0	2525.981	0.1414	89.77778	197.25	268.0	269.0
1289.0	2577.981	0.1407	89.33333	201.0	273.0	273.0
1314.0	2627.981	0.1399	88.8254	204.75	278.0	277.0
1339.0	2677.981	0.1391	88.31746	208.5	281.0	281.0
1366.0	2731.981	0.1383	87.80952	212.5	286.0	286.0
1389.0	2777.981	0.1375	87.30159	216.25	290.0	290.0
1413.0	2825.981	0.1369	86.92063	220.0	294.0	294.0
1439.0	2877.981	0.136	86.34921	224.25	298.0	298.0
1462.0	2923.981	0.1354	85.96825	228.25	302.0	302.0
1487.0	2973.981	0.1347	85.52381	232.0	306.0	306.0
1509.0	3017.981	0.1341	85.14286	236.0	310.0	310.0
1531.0	3061.981	0.1335	84.7619	239.75	314.0	314.0
1555.0	3109.981	0.133	84.44444	243.5	317.0	318.0
1577.0	3153.981	0.1325	84.12698	247.5	321.0	321.0
1598.0	3195.981	0.1322	83.93651	251.5	325.0	325.0
1619.0	3237.981	0.1318	83.68254	255.25	329.0	328.0
1643.0	3285.981	0.1315	83.49206	259.0	333.0	332.0
1665.0	3329.982	0.1313	83.36508	262.75	336.0	336.0
1686.0	3371.982	0.1311	83.2381	266.5	339.0	340.0
1712.0	3423.982	0.1308	83.04762	270.25	343.0	344.0
1735.0	3469.982	0.1306	82.92063	274.75	348.0	348.0
1757.0	3513.982	0.1304	82.79365	278.5	351.0	351.0
1778.0	3555.982	0.1302	82.66667	282.25	354.0	355.0
1796.0	3591.982	0.1301	82.60317	286.0	359.0	358.0
1826.0	3651.982	0.13	82.53968	289.75	362.0	363.0
1847.0	3693.983	0.1298	82.4127	294.25	366.0	366.0
1867.0	3733.983	0.1297	82.34921	298.0	370.0	370.0
1887.0	3773.983	0.1296	82.28571	301.75	373.0	373.0
1913.0	3825.983	0.1294	82.15873	305.5	377.0	378.0
1936.0	3871.983	0.1294	82.15873	309.5	381.0	381.0
1955.0	3909.983	0.1293	82.09524	313.5	385.0	385.0
1974.0	3947.984	0.1292	82.03175	317.25	388.0	388.0
1995.0	3989.984	0.1292	82.03175	321.25	391.0	391.0
2016.0	4031.984	0.1287	81.71429	325.0	394.0	395.0
2041.0	4081.984	0.129	81.90476	328.75	399.0	399.0
2062.0	4123.984	0.1288	81.77778	332.75	402.0	402.0
2083.0	4165.984	0.129	81.90476	336.75	406.0	406.0
2103.0	4205.984	0.1288	81.77778	340.5	409.0	409.0
2123.0	4245.985	0.1287	81.71429	344.25	413.0	413.0
2144.0	4287.985	0.1288	81.77778	348.25	416.0	416.0
2164.0	4327.985	0.1286	81.65079	352.0	419.0	420.0
2183.0	4365.985	0.1286	81.65079	355.75	424.0	423.0
2212.0	4423.985	0.1285	81.5873	360.0	427.0	428.0
2231.0	4461.985	0.1285	81.5873	363.75	430.0	431.0
2251.0	4501.987	0.1284	81.52381	367.5	434.0	434.0
2272.0	4543.989	0.1284	81.52381	371.5	437.0	438.0
2293.0	4585.989	0.1283	81.46032	375.5	441.0	441.0
2314.0	4627.989	0.1283	81.46032	379.25	444.0	445.0
2333.0	4665.989	0.1284	81.52381	383.0	448.0	448.0
2355.0	4709.989	0.1283	81.46032	387.0	452.0	452.0
2376.0	4751.99	0.1282	81.39683	391.25	455.0	455.0
2401.0	4801.992	0.1282	81.39683	395.75	459.0	459.0
2427.0	4853.997	0.1281	81.33333	399.5	464.0	464.0
2446.0	4891.997	0.1281	81.33333	403.25	467.0	467.0
2468.0	4936.0	0.128	81.26984	407.25	470.0	470.0
2488.0	4976.001	0.1281	81.33333	411.25	474.0	474.0
2509.0	5018.002	0.128	81.26984	415.0	477.0	477.0
2529.0	5058.006	0.1279	81.20635	418.75	480.0	481.0
2553.0	5106.006	0.1279	81.20635	423.25	484.0	485.0
2573.0	5146.007	0.1279	81.20635	427.25	488.0	488.0
2596.0	5192.008	0.1278	81.14286	431.25	492.0	492.0
2618.0	5236.012	0.1279	81.20635	435.5	496.0	496.0
2641.0	5282.012	0.1278	81.14286	439.75	499.0	499.0
2661.0	5322.012	0.1278	81.14286	443.5	503.0	503.0
2681.0	5362.013	0.1276	81.01587	447.25	506.0	506.0
2705.0	5410.015	0.1277	81.07937	451.5	510.0	510.0
2725.0	5450.02	0.1275	80.95238	455.5	514.0	513.0
2748.0	5496.02	0.1274	80.88889	459.5	517.0	517.0
2769.0	5538.02	0.1276	81.01587	463.5	521.0	521.0
2790.0	5580.02	0.1275	80.95238	467.25	524.0	524.0
2810.0	5620.025	0.1276	81.01587	471.0	528.0	528.0
2832.0	5664.025	0.1274	80.88889	475.0	531.0	531.0
2855.0	5710.025	0.1274	80.88889	478.75	535.0	535.0
2875.0	5750.027	0.1274	80.88889	482.75	538.0	539.0
2897.0	5794.029	0.1274	80.88889	486.75	542.0	542.0
2916.0	5832.029	0.1275	80.95238	490.5	545.0	545.0
2942.0	5884.031	0.1275	80.95238	494.75	549.0	550.0
2963.0	5926.034	0.1274	80.88889	498.5	552.0	553.0
2984.0	5968.034	0.1273	80.8254	502.5	556.0	557.0
3003.0	6006.036	0.1274	80.88889	506.25	560.0	560.0
3027.0	6054.039	0.1272	80.7619	510.25	564.0	564.0
3047.0	6094.039	0.1273	80.8254	514.25	567.0	567.0
3071.0	6142.039	0.1272	80.7619	518.0	571.0	571.0
3095.0	6190.042	0.1271	80.69841	522.75	575.0	575.0
3118.0	6236.042	0.127	80.63492	526.5	579.0	579.0
3139.0	6278.044	0.127	80.63492	530.5	583.0	583.0
3159.0	6318.044	0.127	80.63492	534.25	586.0	586.0
3182.0	6364.05	0.1271	80.69841	538.25	590.0	590.0
3203.0	6406.053	0.127	80.63492	542.25	592.0	593.0
3226.0	6452.053	0.1269	80.57143	546.0	597.0	597.0
3247.0	6494.056	0.1268	80.50794	550.5	600.0	601.0
3270.0	6540.057	0.1269	80.57143	554.75	604.0	605.0
3291.0	6582.057	0.1268	80.50794	558.5	608.0	608.0
3314.0	6628.059	0.1268	80.50794	562.5	611.0	612.0
3338.0	6676.06	0.1267	80.44444	567.0	616.0	616.0
3363.0	6726.06	0.1266	80.38095	571.25	620.0	620.0
3387.0	6774.06	0.1268	80.50794	575.0	624.0	624.0
3407.0	6814.06	0.1266	80.38095	578.75	627.0	628.0
3430.0	6860.06	0.1265	80.31746	583.25	631.0	631.0
3454.0	6908.06	0.1265	80.31746	587.0	636.0	636.0
3475.0	6950.06	0.1265	80.31746	591.0	639.0	639.0
3496.0	6992.06	0.1264	80.25397	594.75	643.0	643.0
3518.0	7036.06	0.1264	80.25397	599.75	647.0	646.0
3541.0	7082.06	0.1263	80.19048	603.75	650.0	650.0
3566.0	7132.06	0.1264	80.25397	607.5	654.0	654.0
3588.0	7176.06	0.1263	80.19048	611.25	657.0	658.0
3611.0	7222.06	0.1261	80.06349	615.0	661.0	662.0
3634.0	7268.06	0.1261	80.06349	618.75	665.0	666.0
3655.0	7310.06	0.1261	80.06349	622.5	668.0	669.0
3676.0	7352.06	0.1262	80.12698	626.5	671.0	673.0
3692.0	7384.06	0.1261	80.06349	630.5	675.0	675.0
3720.0	7440.06	0.1261	80.06349	634.5	679.0	680.0
3742.0	7484.06	0.1261	80.06349	638.25	683.0	684.0
3766.0	7532.06	0.126	80.0	642.0	687.0	688.0
3789.0	7578.06	0.1259	79.93651	646.0	691.0	692.0
3807.0	7614.06	0.1259	79.93651	650.0	694.0	695.0
3827.0	7654.06	0.1259	79.93651	654.0	697.0	698.0
3853.0	7706.06	0.1258	79.87302	658.0	702.0	702.0
3876.0	7752.06	0.1257	79.80952	661.75	705.0	706.0
3901.0	7802.06	0.1258	79.87302	665.75	710.0	710.0
3922.0	7844.06	0.1257	79.80952	670.0	713.0	714.0
3946.0	7892.06	0.1258	79.87302	674.0	717.0	718.0
3967.0	7934.06	0.1257	79.80952	677.75	721.0	721.0
3992.0	7984.06	0.1255	79.68254	681.5	725.0	726.0
4015.0	8030.06	0.1256	79.74603	685.25	728.0	729.0
4032.0	8064.06	0.1255	79.68254	689.0	731.0	732.0
4052.0	8104.06	0.1255	79.68254	692.75	734.0	736.0
4080.0	8160.06	0.1255	79.68254	696.5	739.0	740.0
4105.0	8210.06	0.1255	79.68254	700.5	743.0	744.0
4125.0	8250.06	0.1255	79.68254	704.5	746.0	748.0
4147.0	8294.06	0.1255	79.68254	708.5	750.0	752.0
4171.0	8342.06	0.1253	79.55556	712.25	754.0	756.0
4196.0	8392.06	0.1253	79.55556	716.0	758.0	760.0
4219.0	8438.06	0.1253	79.55556	719.75	762.0	764.0
4245.0	8490.06	0.1253	79.55556	723.5	766.0	768.0
4272.0	8544.06	0.1252	79.49206	727.25	769.0	772.0
4300.0	8600.06	0.1253	79.55556	731.0	773.0	777.0
4332.0	8664.06	0.1251	79.42857	734.75	777.0	782.0
4371.0	8742.06	0.1251	79.42857	738.5	782.0	789.0
4420.0	8840.06	0.125	79.36508	742.25	784.0	797.0
4472.0	8944.06	0.1252	79.49206	746.0	789.0	806.0
4541.0	9082.06	0.1252	79.49206	749.75	793.0	817.0
4630.0	9260.06	0.125	79.36508	753.5	797.0	832.0
4748.0	9496.06	0.1252	79.49206	757.25	800.0	852.0
4902.0	9804.06	0.125	79.36508	761.0	806.0	867.0
5102.0	10204.06	0.1251	79.42857	764.75	808.0	870.0
5436.0	10872.072	0.1252	79.49206	768.5	812.0	874.0
6253.0	12506.072	0.1258	79.87302	771.25	815.0	878.0