File: charts/20230801/TGA/SATURADAS/Cs-ZSCBA.txt
28/04/2023 13:21:47
User name: Gabs
Comments: Amostra para Mariana. 5°C/min -> 900°C Programa 3.
Number	time(s)	mass(g)	Relative_mass(%)	Sample_T(C)	PV(C)	SV(C)
1.0	0.0	0.06156	99.91884	26.5	63.0	60.0
16.0	35.872	0.06013	97.59779	52.0	115.0	63.0
31.0	65.872	0.06003	97.43548	61.5	128.0	63.0
46.0	95.875	0.0598	97.06217	67.25	132.0	63.0
65.0	133.875	0.05957	96.68885	72.0	131.0	63.0
109.0	221.875	0.05929	96.23438	75.75	127.0	63.0
566.0	1135.891	0.0584	94.78981	76.5	124.0	122.0
596.0	1195.892	0.05826	94.56257	80.25	129.0	127.0
623.0	1249.892	0.05815	94.38403	84.0	133.0	132.0
650.0	1303.892	0.058	94.14056	87.75	138.0	136.0
681.0	1365.892	0.05781	93.83217	91.5	142.0	141.0
707.0	1417.892	0.05765	93.57247	95.5	147.0	146.0
736.0	1475.892	0.05744	93.23162	99.25	152.0	150.0
765.0	1533.892	0.05726	92.93946	103.0	156.0	155.0
785.0	1573.892	0.05705	92.5986	106.75	161.0	158.0
814.0	1631.894	0.05683	92.24152	110.75	166.0	163.0
844.0	1691.896	0.05665	91.94936	114.5	169.0	168.0
873.0	1749.898	0.05645	91.62474	118.25	173.0	173.0
898.0	1799.898	0.05624	91.28388	122.5	179.0	177.0
923.0	1849.898	0.05604	90.95926	126.25	183.0	181.0
951.0	1905.898	0.05577	90.52102	130.5	188.0	186.0
984.0	1971.9	0.05542	89.95293	134.75	192.0	191.0
1014.0	2031.9	0.05524	89.66077	138.5	196.0	196.0
1043.0	2089.9	0.05496	89.2063	142.75	201.0	201.0
1068.0	2139.903	0.05472	88.81675	146.75	206.0	205.0
1093.0	2189.905	0.05442	88.32982	150.5	210.0	210.0
1124.0	2251.905	0.0541	87.81042	154.25	214.0	215.0
1147.0	2297.905	0.05384	87.38841	158.25	219.0	219.0
1176.0	2355.906	0.05348	86.80409	162.0	223.0	223.0
1199.0	2401.91	0.05321	86.36585	166.0	227.0	227.0
1225.0	2453.91	0.05289	85.84645	169.75	232.0	231.0
1248.0	2499.91	0.05263	85.42444	173.5	235.0	235.0
1272.0	2549.458	0.05229	84.87259	177.25	240.0	239.0
1297.0	2599.46	0.05198	84.36942	181.25	245.0	244.0
1328.0	2661.461	0.05157	83.70394	185.75	249.0	249.0
1351.0	2707.464	0.05125	83.18455	189.75	254.0	253.0
1377.0	2759.468	0.05087	82.56776	193.5	257.0	257.0
1402.0	2809.473	0.05052	81.99968	197.75	261.0	261.0
1430.0	2865.475	0.05012	81.35043	201.5	266.0	266.0
1453.0	2911.475	0.04983	80.87973	205.25	270.0	269.0
1479.0	2963.475	0.04953	80.39279	209.0	274.0	274.0
1501.0	3007.475	0.04925	79.93832	213.0	278.0	277.0
1524.0	3053.475	0.04901	79.54877	217.0	281.0	281.0
1549.0	3103.476	0.04874	79.11053	220.75	286.0	285.0
1570.0	3145.487	0.04855	78.80214	224.5	289.0	289.0
1602.0	3209.491	0.04832	78.42883	228.25	294.0	294.0
1622.0	3249.491	0.04814	78.13667	232.5	298.0	298.0
1643.0	3291.493	0.04799	77.8932	236.25	301.0	301.0
1673.0	3351.493	0.04782	77.61727	240.25	306.0	306.0
1697.0	3399.493	0.04766	77.35757	244.5	309.0	310.0
1717.0	3439.499	0.04756	77.19526	248.5	313.0	313.0
1748.0	3501.502	0.04741	76.95179	252.25	318.0	318.0
1769.0	3543.507	0.04732	76.80571	256.75	322.0	322.0
1792.0	3589.507	0.0472	76.61094	260.75	326.0	326.0
1822.0	3649.507	0.04706	76.3837	264.75	330.0	331.0
1844.0	3693.507	0.04698	76.25385	269.0	334.0	334.0
1863.0	3731.507	0.04687	76.07531	272.75	338.0	338.0
1884.0	3773.508	0.04679	75.94546	276.5	341.0	341.0
1913.0	3831.508	0.04669	75.78315	280.25	347.0	346.0
1936.0	3877.508	0.04662	75.66953	284.0	349.0	350.0
1956.0	3917.509	0.04652	75.50722	287.75	353.0	353.0
1978.0	3961.509	0.04644	75.37737	291.5	357.0	357.0
2004.0	4013.509	0.04636	75.24752	295.25	361.0	361.0
2025.0	4055.515	0.04629	75.13391	299.0	365.0	364.0
2046.0	4097.516	0.04621	75.00406	302.75	368.0	368.0
2067.0	4139.519	0.04615	74.90667	306.5	371.0	371.0
2091.0	4187.522	0.04607	74.77682	311.0	377.0	375.0
2120.0	4245.522	0.04595	74.58205	315.0	380.0	380.0
2143.0	4293.131	0.04588	74.46843	319.25	384.0	384.0
2165.0	4337.132	0.04581	74.35481	323.25	388.0	388.0
2186.0	4382.552	0.04572	74.20873	327.5	391.0	392.0
2206.0	4422.552	0.04568	74.14381	331.25	395.0	395.0
2234.0	4478.554	0.04555	73.9328	335.25	400.0	400.0
2255.0	4520.555	0.04548	73.81919	339.0	403.0	403.0
2277.0	4564.555	0.04541	73.70557	343.25	407.0	407.0
2302.0	4614.556	0.04532	73.55949	347.5	411.0	411.0
2322.0	4654.556	0.04528	73.49456	351.25	414.0	414.0
2344.0	4698.557	0.04517	73.31602	355.25	418.0	418.0
2365.0	4740.557	0.04512	73.23486	359.25	421.0	421.0
2391.0	4792.557	0.045	73.04009	363.5	426.0	426.0
2416.0	4842.557	0.04495	72.95894	367.5	430.0	430.0
2435.0	4880.557	0.04487	72.82909	371.25	433.0	433.0
2456.0	4922.557	0.04479	72.69924	375.0	436.0	436.0
2481.0	4972.557	0.0447	72.55316	379.0	440.0	441.0
2501.0	5012.557	0.04465	72.472	382.75	444.0	444.0
2521.0	5052.557	0.04459	72.37461	386.5	447.0	447.0
2543.0	5096.557	0.04449	72.2123	390.25	451.0	451.0
2562.0	5134.558	0.04443	72.11492	394.0	454.0	454.0
2582.0	5174.558	0.04438	72.03376	397.75	457.0	457.0
2614.0	5238.558	0.04427	71.85522	402.25	463.0	463.0
2639.0	5288.558	0.04416	71.67668	406.75	467.0	467.0
2659.0	5328.558	0.04411	71.59552	410.5	470.0	470.0
2680.0	5370.558	0.04406	71.51436	414.25	474.0	474.0
2702.0	5414.558	0.044	71.41698	418.0	477.0	477.0
2720.0	5450.558	0.04393	71.30336	422.0	480.0	480.0
2742.0	5494.558	0.04384	71.15728	425.75	484.0	484.0
2764.0	5538.558	0.04376	71.02743	429.5	487.0	488.0
2786.0	5582.559	0.04369	70.91381	433.75	491.0	491.0
2809.0	5628.559	0.0436	70.76773	437.5	495.0	495.0
2831.0	5672.562	0.04357	70.71904	441.25	499.0	499.0
2852.0	5714.566	0.04349	70.58919	445.5	502.0	502.0
2873.0	5756.567	0.04341	70.45934	449.25	506.0	506.0
2895.0	5800.569	0.04333	70.32949	453.0	509.0	509.0
2917.0	5844.569	0.0432	70.11849	456.75	513.0	513.0
2940.0	5890.569	0.0432	70.11849	461.0	517.0	517.0
2965.0	5940.569	0.04311	69.97241	465.25	521.0	521.0
2983.0	5976.569	0.04304	69.85879	469.0	524.0	524.0
3005.0	6020.569	0.04298	69.7614	472.75	527.0	528.0
3026.0	6062.569	0.04296	69.72894	476.5	531.0	531.0
3050.0	6110.569	0.0429	69.63155	480.75	535.0	535.0
3071.0	6152.569	0.0428	69.46924	484.5	538.0	539.0
3092.0	6194.569	0.04279	69.45301	488.25	542.0	542.0
3116.0	6242.57	0.04275	69.38809	492.0	545.0	546.0
3136.0	6282.57	0.0427	69.30693	495.75	549.0	549.0
3160.0	6330.57	0.04262	69.17708	499.75	553.0	553.0
3182.0	6374.57	0.04261	69.16085	503.75	557.0	557.0
3205.0	6420.57	0.04254	69.04723	507.5	560.0	561.0
3224.0	6458.571	0.04246	68.91738	511.5	563.0	564.0
3248.0	6506.572	0.04248	68.94985	515.25	568.0	568.0
3266.0	6542.575	0.04241	68.83623	519.0	571.0	571.0
3292.0	6594.577	0.04231	68.67392	522.75	575.0	575.0
3313.0	6636.582	0.04232	68.69015	526.5	579.0	579.0
3335.0	6680.584	0.04224	68.5603	530.75	582.0	582.0
3359.0	6728.585	0.0422	68.49537	534.75	586.0	586.0
3382.0	6774.586	0.04214	68.39799	538.5	590.0	590.0
3403.0	6816.586	0.04208	68.3006	542.25	593.0	594.0
3426.0	6862.586	0.04212	68.36553	546.0	597.0	597.0
3445.0	6900.587	0.0421	68.33306	550.25	600.0	601.0
3467.0	6944.587	0.042	68.17075	554.75	604.0	604.0
3493.0	6996.592	0.04202	68.20321	558.5	608.0	609.0
3514.0	7038.593	0.04193	68.05713	562.5	612.0	612.0
3536.0	7082.598	0.04195	68.0896	566.5	616.0	616.0
3561.0	7132.601	0.04186	67.94352	570.25	620.0	620.0
3583.0	7176.603	0.04186	67.94352	574.25	623.0	624.0
3604.0	7218.603	0.0418	67.84613	578.0	627.0	627.0
3627.0	7264.603	0.04177	67.79744	582.25	631.0	631.0
3651.0	7312.603	0.04172	67.71628	586.0	634.0	635.0
3676.0	7362.603	0.04153	67.40789	589.75	639.0	639.0
3699.0	7408.603	0.04157	67.47281	593.75	643.0	643.0
3717.0	7444.603	0.04131	67.0508	598.75	646.0	646.0
3746.0	7502.603	0.04161	67.53774	602.5	650.0	651.0
3771.0	7552.605	0.04153	67.40789	606.75	655.0	655.0
3795.0	7600.605	0.04158	67.48904	610.5	659.0	659.0
3819.0	7648.606	0.04141	67.21311	614.25	663.0	663.0
3844.0	7698.606	0.0415	67.35919	618.25	666.0	667.0
3867.0	7744.606	0.04146	67.29427	622.5	670.0	671.0
3885.0	7780.606	0.04137	67.14819	627.0	674.0	674.0
3911.0	7832.607	0.04143	67.24558	630.75	678.0	678.0
3934.0	7878.607	0.04145	67.27804	634.5	682.0	682.0
3959.0	7928.607	0.04132	67.06703	638.25	685.0	686.0
3983.0	7976.607	0.04135	67.11573	642.0	689.0	690.0
4009.0	8028.607	0.04129	67.01834	646.25	693.0	694.0
4033.0	8076.607	0.04055	65.81724	652.0	699.0	698.0
4071.0	8159.339	0.04132	67.06703	656.75	705.0	705.0
4097.0	8211.339	0.04131	67.0508	661.0	708.0	709.0
4121.0	8259.34	0.04127	66.98588	665.25	712.0	713.0
4142.0	8301.34	0.04132	67.06703	670.5	717.0	717.0
4170.0	8357.341	0.04124	66.93719	675.0	722.0	722.0
4205.0	8427.344	0.04121	66.88849	680.0	727.0	727.0
4224.0	8465.346	0.04125	66.95342	684.25	730.0	730.0
4250.0	8517.346	0.0412	66.87226	688.5	734.0	735.0
4276.0	8569.346	0.0411	66.70995	693.0	739.0	739.0
4309.0	8635.347	0.0411	66.70995	697.5	744.0	745.0
4329.0	8675.35	0.04119	66.85603	702.5	748.0	748.0
4361.0	8739.35	0.04114	66.77487	706.25	754.0	753.0
4386.0	8789.35	0.04097	66.49894	710.5	757.0	757.0
4408.0	8833.35	0.04113	66.75864	716.0	761.0	761.0
4444.0	8905.35	0.04093	66.43402	719.75	767.0	767.0
4470.0	8957.351	0.04102	66.5801	724.25	770.0	771.0
4488.0	8993.351	0.04115	66.79111	728.5	774.0	774.0
4518.0	9053.351	0.04109	66.69372	732.75	779.0	779.0
4545.0	9107.352	0.0411	66.70995	736.5	784.0	784.0
4563.0	9143.352	0.0411	66.70995	741.0	787.0	787.0
4598.0	9213.36	0.04107	66.66126	745.25	792.0	793.0
4624.0	9265.361	0.04104	66.61256	749.0	796.0	797.0
4651.0	9319.361	0.04108	66.67749	754.5	801.0	801.0
4679.0	9375.361	0.04105	66.62879	758.25	806.0	806.0
4701.0	9419.361	0.04096	66.48271	763.25	810.0	810.0
4732.0	9481.364	0.04096	66.48271	767.0	816.0	815.0
4758.0	9533.364	0.04116	66.80734	771.5	818.0	819.0
4782.0	9581.364	0.04097	66.49894	775.75	823.0	823.0
4811.0	9639.364	0.04117	66.82357	780.0	828.0	828.0
4840.0	9697.367	0.04114	66.77487	784.25	831.0	833.0
4870.0	9757.925	0.04122	66.90472	788.75	837.0	838.0
4885.0	9787.925	0.04112	66.74241	792.75	841.0	840.0
4912.0	9841.926	0.04104	66.61256	796.75	845.0	845.0
4942.0	9901.927	0.04098	66.51518	801.75	851.0	850.0
4974.0	9967.291	0.04093	66.43402	806.0	855.0	855.0
4999.0	10017.291	0.04093	66.43402	810.5	859.0	859.0
5029.0	10077.291	0.04093	66.43402	814.25	864.0	864.0
5052.0	10123.291	0.04092	66.41779	819.0	867.0	868.0
5088.0	10199.585	0.04101	66.56387	823.5	874.0	874.0
5115.0	10253.585	0.04097	66.49894	828.0	878.0	879.0
5150.0	10323.585	0.04091	66.40156	832.75	884.0	885.0
5181.0	10385.586	0.04097	66.49894	838.0	889.0	890.0
5205.0	10433.586	0.04097	66.49894	842.75	894.0	894.0
5242.0	10507.599	0.04082	66.25548	847.5	899.0	900.0
5243.0	10509.599	0.04084	66.28794	847.75	899.0	900.0