File: charts/20230801/TGA/SATURADAS/Cs-ZCFA_fixed.txt
05/07/2023 14:07:08
User name: Gabs
Comments: programa 3
Time (min)	Weight (mg)	Deriv. Weight (%/°C)	Relative Mass (%)	Temperature (°C)	Balance Purge Flow (mL/min)	Sample Purge Flow (mL/min)
0.000666667	6.474337	0.07446069	100.0	22.89108	40.01065	60.00839
0.5875	6.455737	0.0682908	99.7127	25.52497	39.94074	60.00756
1.179167	6.433426	0.06526801	99.3681	31.25696	40.00019	59.98916
1.770834	6.408484	0.06520623	98.9829	37.03041	40.01108	60.01475
2.3625	6.385246	0.06097239	98.6239	42.71018	40.00384	60.01518
2.954166	6.363164	0.05942292	98.2829	48.44352	39.99952	60.019
3.545833	6.340838	0.0599264	97.938	54.2449	40.0102	60.01832
4.1375	6.3175	0.06417418	97.5776	60.09608	39.98664	59.97304
4.729166	6.292132	0.07172494	97.1857	65.97912	40.01352	60.00088
5.320832	6.262324	0.08588335	96.7253	71.8779	39.99131	60.00182
5.9125	6.225604	0.1077128	96.1582	77.79472	40.0106	60.00912
6.504166	6.179208	0.1329372	95.4416	83.71349	39.9701	60.059
7.095834	6.123758	0.1557334	94.5851	89.6402	39.99282	59.99221
7.6875	6.060614	0.1683839	93.6098	95.56728	40.01378	59.98236
8.279166	5.995774	0.1635997	92.6083	101.4973	40.00808	59.97868
8.870834	5.936508	0.1404636	91.6929	107.425	40.00161	59.95828
9.4625	5.888698	0.1079801	90.9545	113.3503	40.00199	59.96952
10.05417	5.853282	0.07968231	90.4074	119.27	39.97788	60.03316
10.64583	5.826792	0.06060136	89.9983	125.1882	40.01407	59.98936
11.2375	5.806408	0.04695068	89.6834	131.115	40.00172	60.00729
11.82916	5.79018	0.0386337	89.4328	137.0391	39.98998	60.0167
12.42084	5.776783	0.03225105	89.2259	142.9623	39.99048	59.99937
13.0125	5.765531	0.02687173	89.0521	148.8901	39.97882	60.03544
13.60417	5.755822	0.022855	88.9021	154.8134	39.99335	60.02009
14.19583	5.74762	0.01971052	88.7754	160.7401	39.98717	60.04991
14.7875	5.740674	0.01876816	88.6681	166.6587	40.0071	59.99492
15.37917	5.733665	0.01696165	88.5599	172.576	39.98608	60.00745
15.97084	5.727369	0.01622414	88.4626	178.4891	40.02356	59.9993
16.5625	5.721478	0.0151096	88.3716	184.4034	40.01861	60.0002
17.15417	5.71588	0.01399059	88.2852	190.318	40.0002	60.0048
17.74583	5.710867	0.01269916	88.2078	196.2309	39.99074	60.02461
18.3375	5.706094	0.01184205	88.134	202.1441	40.01334	60.00772
18.92917	5.701832	0.01101057	88.0682	208.0579	40.00812	59.99632
19.52084	5.69781	0.01076898	88.0061	213.9726	39.96862	60.01496
20.1125	5.693676	0.01005194	87.9422	219.882	40.06084	60.02794
20.70416	5.689892	0.009539239	87.8838	225.7946	39.99359	60.02016
21.29584	5.686218	0.009734008	87.827	231.7075	39.9991	60.0041
21.8875	5.682529	0.009400884	87.7701	237.6215	40.00107	60.01957
22.47916	5.679059	0.008330356	87.7165	243.5398	39.98473	59.97796
23.07083	5.675828	0.008490551	87.6666	249.4563	40.01013	59.98059
23.6625	5.67251	0.008083658	87.6153	255.3686	39.99432	59.97982
24.25417	5.669666	0.00717843	87.5714	261.2816	40.00166	59.97954
24.84583	5.666949	0.007554785	87.5294	267.196	39.9981	60.00369
25.4375	5.66418	0.007375582	87.4866	273.1082	39.97531	59.97698
26.02917	5.661192	0.007198872	87.4405	279.0222	40.00326	59.99812
26.62083	5.658609	0.006923736	87.4006	284.9381	40.00266	60.0179
27.2125	5.656032	0.006403499	87.3608	290.851	40.02153	60.01129
27.80416	5.653676	0.006929158	87.3244	296.7616	40.02268	60.01045
28.39584	5.65091	0.00657333	87.2817	302.6722	40.00885	59.99993
28.9875	5.648379	0.006475471	87.2426	308.5863	40.01604	59.9932
29.57916	5.645919	0.006155692	87.2046	314.4973	40.01248	60.0309
30.17084	5.643507	0.00651823	87.1673	320.4072	39.99026	60.02548
30.7625	5.64113	0.006115263	87.1306	326.3222	40.01537	60.01918
31.35416	5.63903	0.005925426	87.0982	332.238	40.02382	60.01911
31.94584	5.636494	0.005708855	87.059	338.1488	40.00652	60.01838
32.5375	5.634403	0.00587973	87.0267	344.0613	40.03455	60.02024
33.12916	5.63222	0.005462193	86.993	349.9758	39.97542	59.97866
33.72083	5.630239	0.005410076	86.9624	355.8894	39.99719	60.02508
34.3125	5.628048	0.004894597	86.9286	361.8072	39.99656	60.01895
34.90417	5.626259	0.00515309	86.9009	367.7355	40.02333	60.01142
35.49584	5.62424	0.00488573	86.8697	373.6608	40.00332	60.02709
36.0875	5.622495	0.004741002	86.8428	379.5835	40.00148	59.99425
36.67916	5.62062	0.004508045	86.8138	385.5033	39.9595	59.99934
37.27083	5.618824	0.004210889	86.7861	391.4218	39.98941	59.9829
37.8625	5.61731	0.004646738	86.7627	397.3428	40.00983	60.00645
38.45416	5.615614	0.003966316	86.7365	403.2612	39.99055	59.95518
39.04584	5.61389	0.004168665	86.7099	409.1776	39.97934	60.01744
39.6375	5.61242	0.004042595	86.6872	415.098	40.00011	60.02115
40.22917	5.611144	0.004227872	86.6675	421.0153	40.012	60.00011
40.82084	5.609272	0.003977394	86.6386	426.9372	39.98866	60.01797
41.4125	5.607966	0.003002822	86.6184	432.8568	39.96254	59.98128
42.00416	5.606934	0.003569791	86.6024	438.7788	39.98184	60.01711
42.59583	5.60551	0.003143402	86.5804	444.7004	40.0159	59.9987
43.1875	5.604248	0.003867764	86.561	450.6214	40.01317	60.01189
43.77917	5.60268	0.003520662	86.5367	456.5421	39.99603	60.00468
44.37084	5.601301	0.003840097	86.5154	462.4629	40.01013	60.02246
44.9625	5.59979	0.003317141	86.4921	468.3834	40.02693	60.00732
45.55416	5.598724	0.003164595	86.4756	474.3039	39.9807	60.034
46.14583	5.597408	0.003818709	86.4553	480.2266	40.01447	59.99004
46.7375	5.595788	0.003700046	86.4303	486.1458	40.00067	60.00258
47.32916	5.594448	0.003517272	86.4096	492.0665	39.99957	60.0169
47.92084	5.593298	0.003257158	86.3918	497.9886	40.03094	60.00951
48.5125	5.591884	0.003289141	86.37	503.9076	40.026	59.99878
49.10417	5.590618	0.003897785	86.3504	509.8274	40.01418	59.9973
49.69584	5.589138	0.003422002	86.3276	515.7468	40.00028	59.97632
50.2875	5.587688	0.003818443	86.3052	521.6662	39.99012	59.99899
50.87916	5.58651	0.003427502	86.287	527.5888	40.01866	60.02715
51.47083	5.585168	0.00330565	86.2663	533.5136	40.0175	59.97993
52.0625	5.58385	0.003281408	86.2459	539.435	40.00558	59.99045
52.65418	5.582126	0.003462128	86.2193	545.3526	40.02464	59.97258
53.24584	5.580921	0.003545825	86.2007	551.2758	39.98958	59.99543
53.8375	5.579934	0.004101545	86.1854	557.1961	39.9932	59.96668
54.42916	5.578205	0.00336901	86.1587	563.1174	40.00832	59.98851
55.02082	5.576885	0.003268046	86.1383	569.0406	40.00462	60.01368
55.6125	5.57547	0.003276697	86.1165	574.9609	40.00672	59.98906
56.20418	5.574438	0.002931822	86.1005	580.882	39.98928	59.9911
56.79582	5.57325	0.002349624	86.0822	586.8011	40.01834	59.9866
57.3875	5.57282	0.001324834	86.0755	592.7257	40.0017	59.98234
57.97918	5.57246	0.001202514	86.07	598.6436	40.00884	60.0264
58.57084	5.571873	0.001155864	86.0609	604.565	40.02852	60.00569
59.1625	5.571308	0.000913867	86.0522	610.4856	39.97592	59.9993
59.75416	5.571421	0.000594133	86.0539	616.4101	40.00952	60.0147
60.34582	5.570521	0.001107837	86.04	622.3316	40.0193	59.98734
60.9375	5.570548	0.001248618	86.0404	628.2486	40.02075	59.99397
61.52918	5.569701	0.001081861	86.0274	634.1691	40.00099	59.98229
62.12084	5.569593	0.001358572	86.0257	640.092	39.99756	59.98545
62.7125	5.569209	0.000958183	86.0198	646.0145	39.98675	59.9992
63.30416	5.56847	0.001359096	86.0083	651.9356	40.0091	59.99283
63.89582	5.568156	0.00102926	86.0035	657.853	39.99206	60.01912
64.4875	5.567416	0.00151781	85.9921	663.775	39.99368	60.02355
65.07918	5.566871	0.001130419	85.9836	669.698	40.01181	59.96641
65.67082	5.566944	0.000455509	85.9848	675.6195	39.99614	59.98974
66.2625	5.566693	0.002209516	85.9809	681.539	40.02399	59.98424
66.85416	5.565338	0.000335432	85.96	687.4606	40.00514	60.006
67.44582	5.565815	0.001159985	85.9673	693.3748	39.9956	60.00914
68.0375	5.564312	0.002777024	85.9441	699.2975	40.02304	60.00232
68.62916	5.562995	0.003779366	85.9238	705.2194	40.01187	59.98985
69.22082	5.56246	0.002689332	85.9155	711.1429	39.99527	60.01226
69.8125	5.560505	0.003570374	85.8853	717.0626	40.00644	60.0067
70.40418	5.559563	0.003107627	85.8708	722.9858	40.01319	59.98652
70.99584	5.557993	0.004041698	85.8465	728.9099	40.00922	59.96572
71.5875	5.556558	0.00502897	85.8244	734.8292	39.99027	59.96645
72.17918	5.554782	0.002804338	85.7969	740.752	40.00666	59.98432
72.77084	5.553234	0.00442735	85.773	746.6735	39.991	60.02816
73.3625	5.552166	0.003717456	85.7565	752.5962	40.00264	60.01331
73.95418	5.550611	0.003617872	85.7325	758.5082	40.02359	59.98888
74.54582	5.549048	0.003911667	85.7084	764.4214	39.98394	60.01089
75.1375	5.54793	0.003393011	85.6911	770.3441	39.98089	59.99988
75.72916	5.54612	0.00245338	85.6631	776.2647	40.00027	59.99734
76.32082	5.545922	0.004367912	85.6601	782.1855	40.00856	59.98377
76.9125	5.544213	0.001886051	85.6337	788.1072	40.02726	60.00338
77.50416	5.5435	0.003569309	85.6227	794.028	39.9805	60.02222
78.09582	5.541316	0.004202456	85.5889	799.9491	40.00222	60.02099
78.6875	5.540096	0.003961712	85.5701	805.8676	40.0477	60.00292
79.27918	5.538908	0.00368352	85.5517	811.7868	39.98305	60.04414
79.87084	5.537031	0.004917846	85.5227	817.7066	39.9982	60.0103
80.4625	5.535498	0.004571602	85.4991	823.6321	39.99512	60.00108
81.05418	5.533139	0.005435559	85.4626	829.5465	39.98874	59.97883
81.64584	5.531303	0.00576075	85.4343	835.4676	39.98541	59.99263
82.2375	5.527764	0.009521516	85.3796	841.386	39.9835	59.9831
82.82918	5.523918	0.01290512	85.3202	847.2941	40.00124	59.98008
83.42082	5.518852	0.01540952	85.242	853.2211	40.02601	60.01033
84.0125	5.511759	0.01883667	85.1324	859.1414	40.00172	59.9875
84.60416	5.504162	0.02214398	85.0151	865.0609	39.98278	59.991
85.19582	5.495283	0.02458544	84.8779	870.9806	39.99544	60.00206
85.7875	5.485715	0.02475971	84.7301	876.9022	40.00832	59.97672
86.37916	5.476795	0.02006864	84.5924	882.8231	40.00933	60.01476
86.97082	5.470123	0.01525515	84.4893	888.7335	39.99949	60.01146
87.5625	5.46541	0.01094258	84.4165	894.655	39.98588	59.98587
88.15418	5.461932	0.005882818	84.3628	900.5772	39.98443	59.97929
88.74584	5.460528	0.001397235	84.3411	906.4999	39.98228	60.02824
89.3375	5.460196	0.000718784	84.336	912.423	39.98116	60.0126
89.92918	5.460393	0.001441268	84.339	918.337	40.00645	59.9953
90.52084	5.459796	-0.00092463	84.3298	924.2558	40.01429	60.0229
91.1125	5.4613	-0.0023115	84.353	930.1757	39.94986	60.0022
91.70418	5.462288	-0.0032485	84.3683	936.0955	39.99726	59.99656
92.29582	5.462029	0.000919547	84.3643	942.0175	40.03222	60.02846
92.70418	5.462182	-0.00072548	84.3667	946.1036	40.01875	59.98154